*******************************************************************************************************
Z     A     E(GeV)     Theta(deg)     Energy Loss(GeV)     Sigma(#mub/sr/GeV)     ERROR     Citation     
*******************************************************************************************************
6     12     0.48          52             0.0024              0                     0
6     12     0.48          52             0.0072              0                     0
6     12     0.48          52             0.012              0                     0
6     12     0.48          52             0.0168              0                     0
6     12     0.48          52             0.0216              0                     0
6     12     0.48          52             0.0264              0                     0
6     12     0.48          52             0.0312              0                     0
6     12     0.48          52             0.036              0                     0
6     12     0.48          52             0.0408              72.074                     13.1589
6     12     0.48          52             0.0456              1191.62                     53.5055
6     12     0.48          52             0.0504              3005.49                     84.974
6     12     0.48          52             0.0552              5458.41                     114.515
6     12     0.48          52             0.06              7457.26                     133.85
6     12     0.48          52             0.0648              9223.07                     148.856
6     12     0.48          52             0.0696              10743.8                     160.66
6     12     0.48          52             0.0744              11728.8                     167.864
6     12     0.48          52             0.0792              13785.4                     181.986
6     12     0.48          52             0.084              14472.5                     186.466
6     12     0.48          52             0.0888              15805.8                     194.867
6     12     0.48          52             0.0936              16005.2                     196.092
6     12     0.48          52             0.0984              15741                     194.466
6     12     0.48          52             0.1032              15568                     193.395
6     12     0.48          52             0.108              14743.9                     188.207
6     12     0.48          52             0.1128              13879.1                     182.603
6     12     0.48          52             0.1176              13372.1                     179.238
6     12     0.48          52             0.1224              12144.5                     170.812
6     12     0.48          52             0.1272              11450.2                     165.857
6     12     0.48          52             0.132              10549.2                     159.199
6     12     0.48          52             0.1368              9249.5                     149.069
6     12     0.48          52             0.1416              8326.95                     141.44
6     12     0.48          52             0.1464              7714.32                     136.137
6     12     0.48          52             0.1512              7168.96                     131.237
6     12     0.48          52             0.156              6224.79                     122.29
6     12     0.48          52             0.1608              5350.29                     113.375
6     12     0.48          52             0.1656              4559.88                     104.666
6     12     0.48          52             0.1704              4093.8                     99.1727
6     12     0.48          52             0.1752              3423.52                     90.6912
6     12     0.48          52             0.18              2971.85                     84.4972
6     12     0.48          52             0.1848              2388.05                     75.7444
6     12     0.48          52             0.1896              2106.96                     71.1471
6     12     0.48          52             0.1944              1787.44                     65.5306
6     12     0.48          52             0.1992              1458.3                     59.1905
6     12     0.48          52             0.204              1085.92                     51.0772
6     12     0.48          52             0.2088              900.925                     46.5236
6     12     0.48          52             0.2136              797.619                     43.775
6     12     0.48          52             0.2184              708.728                     41.2637
6     12     0.48          52             0.2232              701.52                     41.0534
6     12     0.48          52             0.228              756.777                     42.6396
6     12     0.48          52             0.2328              679.898                     40.4158
6     12     0.48          52             0.2376              689.508                     40.7004
6     12     0.48          52             0.2424              824.046                     44.4943
6     12     0.48          52             0.2472              756.777                     42.6396
6     12     0.48          52             0.252              819.241                     44.3644
6     12     0.48          52             0.2568              867.291                     45.6469
6     12     0.48          52             0.2616              1028.26                     49.7026
6     12     0.48          52             0.2664              1052.28                     50.2799
6     12     0.48          52             0.2712              1049.88                     50.2225
6     12     0.48          52             0.276              1109.94                     51.6391
6     12     0.48          52             0.2808              1292.53                     55.7248
6     12     0.48          52             0.2856              1273.31                     55.309
6     12     0.48          52             0.2904              1388.63                     57.7592
6     12     0.48          52             0.2952              1525.57                     60.5403
6     12     0.48          52             0.3              1626.47                     62.5103
6     12     0.48          52             0.3048              1753.8                     64.9111
6     12     0.48          52             0.3096              1986.84                     69.0892
6     12     0.48          52             0.3144              2212.67                     72.91
6     12     0.48          52             0.3192              2397.66                     75.8967
6     12     0.48          52             0.324              2510.58                     77.6633
6     12     0.48          52             0.3288              2664.34                     80.0061
6     12     0.48          52             0.3336              2825.3                     82.3875
6     12     0.48          52             0.3384              2995.88                     84.8381
6     12     0.48          52             0.3432              3365.86                     89.9242
6     12     0.48          52             0.348              3466.76                     91.2621
6     12     0.48          52             0.3528              3594.09                     92.923
6     12     0.48          52             0.3576              3752.65                     94.9507
6     12     0.48          52             0.3624              3997.71                     98.0018
6     12     0.48          52             0.3672              4216.33                     100.646
6     12     0.48          52             0.372              4101.01                     99.26
6     12     0.48          52             0.3768              4230.75                     100.818
6     12     0.48          52             0.3816              4374.89                     102.521
6     12     0.48          52             0.3864              4415.74                     102.998
6     12     0.48          52             0.3912              4458.98                     103.501
6     12     0.48          52             0.396              4389.31                     102.69
6     12     0.48          52             0.4008              4444.56                     103.334
6     12     0.48          52             0.4056              4235.55                     100.875
6     12     0.48          52             0.4104              4413.33                     102.97
6     12     0.48          52             0.4152              4384.5                     102.633
6     12     0.48          52             0.42              4370.09                     102.465
6     12     0.48          52             0.4248              2861.34                     82.9112
6     12     0.48          52             0.4296              182.588                     20.9442
6     12     0.48          52             0.4344              0                     0
6     12     0.48          52             0.4392              0                     0
6     12     0.48          52             0.444              0                     0
6     12     0.48          52             0.4488              0                     0
6     12     0.48          52             0.4536              0                     0
6     12     0.48          52             0.4584              0                     0
6     12     0.48          52             0.4632              0                     0
6     12     0.48          52             0.468              0                     0
6     12     0.48          52             0.4728              0                     0
*******************************************************************************************************
 Average angle 51.9548 +- 0.127847 deg 
 Average E' 0.300959 +- 0.00074058 GeV 
