*******************************************************************************************************
Z     A     E(GeV)     Theta(deg)     Energy Loss(GeV)     Sigma(#mub/sr/GeV)     ERROR     Citation     
*******************************************************************************************************
6     12     0.68          49.6667             0.0034              0                     0
6     12     0.68          49.6667             0.0102              0                     0
6     12     0.68          49.6667             0.017              0                     0
6     12     0.68          49.6667             0.0238              0                     0
6     12     0.68          49.6667             0.0306              0                     0
6     12     0.68          49.6667             0.0374              0                     0
6     12     0.68          49.6667             0.0442              0                     0
6     12     0.68          49.6667             0.051              0                     0
6     12     0.68          49.6667             0.0578              1.9599                     1.9599
6     12     0.68          49.6667             0.0646              68.5964                     11.5949
6     12     0.68          49.6667             0.0714              280.265                     23.437
6     12     0.68          49.6667             0.0782              521.333                     31.9649
6     12     0.68          49.6667             0.085              930.951                     42.715
6     12     0.68          49.6667             0.0918              1371.93                     51.854
6     12     0.68          49.6667             0.0986              1852.1                     60.2489
6     12     0.68          49.6667             0.1054              2316.6                     67.3817
6     12     0.68          49.6667             0.1122              2910.45                     75.526
6     12     0.68          49.6667             0.119              3367.1                     81.2353
6     12     0.68          49.6667             0.1258              3972.71                     88.2389
6     12     0.68          49.6667             0.1326              4423.49                     93.1106
6     12     0.68          49.6667             0.1394              4905.62                     98.0536
6     12     0.68          49.6667             0.1462              5211.37                     101.063
6     12     0.68          49.6667             0.153              5585.71                     104.63
6     12     0.68          49.6667             0.1598              5550.43                     104.299
6     12     0.68          49.6667             0.1666              5407.36                     102.946
6     12     0.68          49.6667             0.1734              5052.61                     99.5118
6     12     0.68          49.6667             0.1802              4676.31                     95.7345
6     12     0.68          49.6667             0.187              4439.17                     93.2754
6     12     0.68          49.6667             0.1938              4011.91                     88.6731
6     12     0.68          49.6667             0.2006              3649.33                     84.5713
6     12     0.68          49.6667             0.2074              3514.09                     82.9895
6     12     0.68          49.6667             0.2142              3102.52                     77.9783
6     12     0.68          49.6667             0.221              2812.45                     74.2436
6     12     0.68          49.6667             0.2278              2351.88                     67.8928
6     12     0.68          49.6667             0.2346              2265.64                     66.6365
6     12     0.68          49.6667             0.2414              1983.42                     62.3481
6     12     0.68          49.6667             0.2482              1879.54                     60.6935
6     12     0.68          49.6667             0.255              1622.79                     56.396
6     12     0.68          49.6667             0.2618              1493.44                     54.1017
6     12     0.68          49.6667             0.2686              1342.53                     51.2954
6     12     0.68          49.6667             0.2754              1258.25                     49.6593
6     12     0.68          49.6667             0.2822              1181.82                     48.1273
6     12     0.68          49.6667             0.289              1158.3                     47.6461
6     12     0.68          49.6667             0.2958              1028.95                     44.9069
6     12     0.68          49.6667             0.3026              1042.67                     45.2053
6     12     0.68          49.6667             0.3094              1091.66                     46.2552
6     12     0.68          49.6667             0.3162              1160.26                     47.6863
6     12     0.68          49.6667             0.323              1221.02                     48.919
6     12     0.68          49.6667             0.3298              1348.41                     51.4076
6     12     0.68          49.6667             0.3366              1462.08                     53.5307
6     12     0.68          49.6667             0.3434              1652.19                     56.9045
6     12     0.68          49.6667             0.3502              1720.79                     58.0738
6     12     0.68          49.6667             0.357              1787.43                     59.1876
6     12     0.68          49.6667             0.3638              2036.33                     63.1744
6     12     0.68          49.6667             0.3706              2314.64                     67.3532
6     12     0.68          49.6667             0.3774              2285.24                     66.9241
6     12     0.68          49.6667             0.3842              2471.43                     69.597
6     12     0.68          49.6667             0.391              2483.19                     69.7624
6     12     0.68          49.6667             0.3978              2518.47                     70.2562
6     12     0.68          49.6667             0.4046              2755.61                     73.4896
6     12     0.68          49.6667             0.4114              2984.92                     76.4862
6     12     0.68          49.6667             0.4182              2798.73                     74.0623
6     12     0.68          49.6667             0.425              3063.32                     77.4841
6     12     0.68          49.6667             0.4318              3012.36                     76.837
6     12     0.68          49.6667             0.4386              2792.85                     73.9845
6     12     0.68          49.6667             0.4454              2779.13                     73.8025
6     12     0.68          49.6667             0.4522              2835.97                     74.5534
6     12     0.68          49.6667             0.459              2775.21                     73.7505
6     12     0.68          49.6667             0.4658              2622.34                     71.6904
6     12     0.68          49.6667             0.4726              2538.07                     70.5291
6     12     0.68          49.6667             0.4794              2583.14                     71.1526
6     12     0.68          49.6667             0.4862              2477.31                     69.6798
6     12     0.68          49.6667             0.493              2183.33                     65.4148
6     12     0.68          49.6667             0.4998              2169.61                     65.2089
6     12     0.68          49.6667             0.5066              2146.09                     64.8545
6     12     0.68          49.6667             0.5134              1846.22                     60.1532
6     12     0.68          49.6667             0.5202              1861.9                     60.4081
6     12     0.68          49.6667             0.527              1828.58                     59.8651
6     12     0.68          49.6667             0.5338              1873.66                     60.5985
6     12     0.68          49.6667             0.5406              1669.83                     57.2075
6     12     0.68          49.6667             0.5474              1573.8                     55.5381
6     12     0.68          49.6667             0.5542              1550.28                     55.1216
6     12     0.68          49.6667             0.561              1426.8                     52.8809
6     12     0.68          49.6667             0.5678              1432.68                     52.9898
6     12     0.68          49.6667             0.5746              1389.57                     52.1863
6     12     0.68          49.6667             0.5814              1315.09                     50.7685
6     12     0.68          49.6667             0.5882              1379.77                     52.0019
6     12     0.68          49.6667             0.595              1232.78                     49.154
6     12     0.68          49.6667             0.6018              1134.78                     47.1599
6     12     0.68          49.6667             0.6086              1238.65                     49.271
6     12     0.68          49.6667             0.6154              1224.94                     48.9974
6     12     0.68          49.6667             0.6222              1222.98                     48.9582
6     12     0.68          49.6667             0.629              1201.42                     48.5248
6     12     0.68          49.6667             0.6358              1091.66                     46.2552
6     12     0.68          49.6667             0.6426              50.9573                     9.99355
6     12     0.68          49.6667             0.6494              0                     0
6     12     0.68          49.6667             0.6562              0                     0
6     12     0.68          49.6667             0.663              0                     0
6     12     0.68          49.6667             0.6698              0                     0
*******************************************************************************************************
 Average angle 49.6223 +- 0.157656 deg 
 Average E' 0.362645 +- 0.00115217 GeV 
