*******************************************************************************************************
Z     A     E(GeV)     Theta(deg)     Energy Loss(GeV)     Sigma(#mub/sr/GeV)     ERROR     Citation     
*******************************************************************************************************
6     12     0.24          114.667             0.0012              37.1219                     10.2958
6     12     0.24          114.667             0.0036              54.2551                     12.447
6     12     0.24          114.667             0.006              88.5214                     15.8989
6     12     0.24          114.667             0.0084              68.5327                     13.9892
6     12     0.24          114.667             0.0108              94.2325                     16.4038
6     12     0.24          114.667             0.0132              71.3882                     14.2776
6     12     0.24          114.667             0.0156              111.366                     17.8328
6     12     0.24          114.667             0.018              128.499                     19.1555
6     12     0.24          114.667             0.0204              108.51                     17.6027
6     12     0.24          114.667             0.0228              122.788                     18.725
6     12     0.24          114.667             0.0252              134.21                     19.5765
6     12     0.24          114.667             0.0276              131.354                     19.3671
6     12     0.24          114.667             0.03              142.776                     20.1916
6     12     0.24          114.667             0.0324              197.032                     23.7198
6     12     0.24          114.667             0.0348              179.898                     22.6651
6     12     0.24          114.667             0.0372              231.298                     25.6998
6     12     0.24          114.667             0.0396              382.641                     33.0551
6     12     0.24          114.667             0.042              619.65                     42.0646
6     12     0.24          114.667             0.0444              919.481                     51.2407
6     12     0.24          114.667             0.0468              1307.83                     61.111
6     12     0.24          114.667             0.0492              1938.9                     74.4083
6     12     0.24          114.667             0.0516              2324.4                     81.4702
6     12     0.24          114.667             0.054              2941.2                     91.6443
6     12     0.24          114.667             0.0564              3555.13                     100.756
6     12     0.24          114.667             0.0588              4126.24                     108.548
6     12     0.24          114.667             0.0612              4254.74                     110.225
6     12     0.24          114.667             0.0636              4691.64                     115.746
6     12     0.24          114.667             0.066              5105.69                     120.745
6     12     0.24          114.667             0.0684              5182.79                     121.654
6     12     0.24          114.667             0.0708              5765.31                     128.308
6     12     0.24          114.667             0.0732              5848.13                     129.227
6     12     0.24          114.667             0.0756              6050.87                     131.447
6     12     0.24          114.667             0.078              6305.01                     134.18
6     12     0.24          114.667             0.0804              6285.02                     133.967
6     12     0.24          114.667             0.0828              6059.43                     131.54
6     12     0.24          114.667             0.0852              5942.36                     130.264
6     12     0.24          114.667             0.0876              5990.9                     130.794
6     12     0.24          114.667             0.09              5696.78                     127.543
6     12     0.24          114.667             0.0924              5773.88                     128.404
6     12     0.24          114.667             0.0948              5665.37                     127.191
6     12     0.24          114.667             0.0972              5117.11                     120.88
6     12     0.24          114.667             0.0996              5159.94                     121.385
6     12     0.24          114.667             0.102              4891.52                     118.186
6     12     0.24          114.667             0.1044              4763.02                     116.623
6     12     0.24          114.667             0.1068              4480.33                     113.109
6     12     0.24          114.667             0.1092              4269.02                     110.41
6     12     0.24          114.667             0.1116              4137.66                     108.698
6     12     0.24          114.667             0.114              3877.81                     105.229
6     12     0.24          114.667             0.1164              3695.06                     102.72
6     12     0.24          114.667             0.1188              3632.23                     101.843
6     12     0.24          114.667             0.1212              3221.04                     95.905
6     12     0.24          114.667             0.1236              3123.95                     94.4486
6     12     0.24          114.667             0.126              2932.63                     91.5107
6     12     0.24          114.667             0.1284              2735.6                     88.3831
6     12     0.24          114.667             0.1308              2421.49                     83.1543
6     12     0.24          114.667             0.1332              2195.9                     79.1863
6     12     0.24          114.667             0.1356              2098.81                     77.4159
6     12     0.24          114.667             0.138              1864.66                     72.9698
6     12     0.24          114.667             0.1404              1699.04                     69.6539
6     12     0.24          114.667             0.1428              1444.9                     64.2336
6     12     0.24          114.667             0.1452              1265                     60.102
6     12     0.24          114.667             0.1476              1110.8                     56.3199
6     12     0.24          114.667             0.15              950.891                     52.1085
6     12     0.24          114.667             0.1524              765.282                     46.747
6     12     0.24          114.667             0.1548              611.083                     41.7728
6     12     0.24          114.667             0.1572              528.273                     38.8394
6     12     0.24          114.667             0.1596              416.907                     34.5035
6     12     0.24          114.667             0.162              311.253                     29.8126
6     12     0.24          114.667             0.1644              222.731                     25.2194
6     12     0.24          114.667             0.1668              185.609                     23.022
6     12     0.24          114.667             0.1692              165.621                     21.7471
6     12     0.24          114.667             0.1716              145.632                     20.3926
6     12     0.24          114.667             0.174              139.921                     19.9887
6     12     0.24          114.667             0.1764              148.488                     20.5915
6     12     0.24          114.667             0.1788              134.21                     19.5765
6     12     0.24          114.667             0.1812              142.776                     20.1916
6     12     0.24          114.667             0.1836              128.499                     19.1555
6     12     0.24          114.667             0.186              139.921                     19.9887
6     12     0.24          114.667             0.1884              128.499                     19.1555
6     12     0.24          114.667             0.1908              151.343                     20.7886
6     12     0.24          114.667             0.1932              128.499                     19.1555
6     12     0.24          114.667             0.1956              131.354                     19.3671
6     12     0.24          114.667             0.198              99.9435                     16.8935
6     12     0.24          114.667             0.2004              105.655                     17.3695
6     12     0.24          114.667             0.2028              119.932                     18.5059
6     12     0.24          114.667             0.2052              137.065                     19.7837
6     12     0.24          114.667             0.2076              97.088                     16.6505
6     12     0.24          114.667             0.21              82.8104                     15.3775
6     12     0.24          114.667             0.2124              0                     0
6     12     0.24          114.667             0.2148              0                     0
6     12     0.24          114.667             0.2172              0                     0
6     12     0.24          114.667             0.2196              0                     0
6     12     0.24          114.667             0.222              0                     0
6     12     0.24          114.667             0.2244              0                     0
6     12     0.24          114.667             0.2268              0                     0
6     12     0.24          114.667             0.2292              0                     0
6     12     0.24          114.667             0.2316              0                     0
6     12     0.24          114.667             0.234              0                     0
6     12     0.24          114.667             0.2364              0                     0
*******************************************************************************************************
 Average angle 114.643 +- 0.454784 deg 
 Average E' 0.146997 +- 0.000583132 GeV 
