*******************************************************************************************************
Z     A     E(GeV)     Theta(deg)     Energy Loss(GeV)     Sigma(#mub/sr/GeV)     ERROR     Citation     
*******************************************************************************************************
6     12     0.24          142.667             0.0012              29.9526                     11.321
6     12     0.24          142.667             0.0036              42.7894                     13.5312
6     12     0.24          142.667             0.006              42.7894                     13.5312
6     12     0.24          142.667             0.0084              64.1841                     16.5723
6     12     0.24          142.667             0.0108              17.1157                     8.55787
6     12     0.24          142.667             0.0132              59.9051                     16.0103
6     12     0.24          142.667             0.0156              85.5787                     19.136
6     12     0.24          142.667             0.018              106.973                     21.3947
6     12     0.24          142.667             0.0204              111.252                     21.8184
6     12     0.24          142.667             0.0228              119.81                     22.642
6     12     0.24          142.667             0.0252              124.089                     23.0428
6     12     0.24          142.667             0.0276              111.252                     21.8184
6     12     0.24          142.667             0.03              175.436                     27.3986
6     12     0.24          142.667             0.0324              132.647                     23.8241
6     12     0.24          142.667             0.0348              158.321                     26.0278
6     12     0.24          142.667             0.0372              166.879                     26.722
6     12     0.24          142.667             0.0396              149.763                     25.3145
6     12     0.24          142.667             0.042              196.831                     29.0212
6     12     0.24          142.667             0.0444              286.689                     35.0246
6     12     0.24          142.667             0.0468              397.941                     41.2646
6     12     0.24          142.667             0.0492              504.915                     46.4812
6     12     0.24          142.667             0.0516              573.378                     49.5323
6     12     0.24          142.667             0.054              1048.34                     66.976
6     12     0.24          142.667             0.0564              1176.71                     70.9581
6     12     0.24          142.667             0.0588              1424.89                     78.0833
6     12     0.24          142.667             0.0612              1690.18                     85.0422
6     12     0.24          142.667             0.0636              1861.34                     89.2443
6     12     0.24          142.667             0.066              2019.66                     92.9623
6     12     0.24          142.667             0.0684              2075.28                     94.2338
6     12     0.24          142.667             0.0708              2404.76                     101.439
6     12     0.24          142.667             0.0732              2661.5                     106.716
6     12     0.24          142.667             0.0756              2593.04                     105.335
6     12     0.24          142.667             0.078              2854.05                     110.509
6     12     0.24          142.667             0.0804              3264.83                     118.195
6     12     0.24          142.667             0.0828              2986.7                     113.048
6     12     0.24          142.667             0.0852              3243.43                     117.807
6     12     0.24          142.667             0.0876              3427.43                     121.102
6     12     0.24          142.667             0.09              3435.99                     121.253
6     12     0.24          142.667             0.0924              3461.66                     121.705
6     12     0.24          142.667             0.0948              3538.68                     123.052
6     12     0.24          142.667             0.0972              3611.42                     124.31
6     12     0.24          142.667             0.0996              3461.66                     121.705
6     12     0.24          142.667             0.102              3145.02                     116.006
6     12     0.24          142.667             0.1044              3076.56                     114.736
6     12     0.24          142.667             0.1068              3183.53                     116.714
6     12     0.24          142.667             0.1092              3020.93                     113.694
6     12     0.24          142.667             0.1116              2986.7                     113.048
6     12     0.24          142.667             0.114              3008.09                     113.452
6     12     0.24          142.667             0.1164              2648.66                     106.459
6     12     0.24          142.667             0.1188              2610.15                     105.682
6     12     0.24          142.667             0.1212              2400.48                     101.349
6     12     0.24          142.667             0.1236              2297.79                     99.1569
6     12     0.24          142.667             0.126              2041.05                     93.4534
6     12     0.24          142.667             0.1284              2302.07                     99.2492
6     12     0.24          142.667             0.1308              1865.62                     89.3468
6     12     0.24          142.667             0.1332              1831.39                     88.5233
6     12     0.24          142.667             0.1356              1707.3                     85.4717
6     12     0.24          142.667             0.138              1660.23                     84.2853
6     12     0.24          142.667             0.1404              1480.51                     79.5928
6     12     0.24          142.667             0.1428              1369.26                     76.544
6     12     0.24          142.667             0.1452              1258.01                     73.3685
6     12     0.24          142.667             0.1476              1146.76                     70.0492
6     12     0.24          142.667             0.15              1082.57                     68.0607
6     12     0.24          142.667             0.1524              949.924                     63.7547
6     12     0.24          142.667             0.1548              855.787                     60.5133
6     12     0.24          142.667             0.1572              607.609                     50.9894
6     12     0.24          142.667             0.1596              590.493                     50.2661
6     12     0.24          142.667             0.162              449.288                     43.8461
6     12     0.24          142.667             0.1644              363.71                     39.4499
6     12     0.24          142.667             0.1668              342.315                     38.272
6     12     0.24          142.667             0.1692              308.083                     36.308
6     12     0.24          142.667             0.1716              183.994                     28.0589
6     12     0.24          142.667             0.174              166.879                     26.722
6     12     0.24          142.667             0.1764              128.368                     23.4367
6     12     0.24          142.667             0.1788              154.042                     25.6736
6     12     0.24          142.667             0.1812              106.973                     21.3947
6     12     0.24          142.667             0.1836              132.647                     23.8241
6     12     0.24          142.667             0.186              102.694                     20.9624
6     12     0.24          142.667             0.1884              145.484                     24.9503
6     12     0.24          142.667             0.1908              128.368                     23.4367
6     12     0.24          142.667             0.1932              85.5787                     19.136
6     12     0.24          142.667             0.1956              158.321                     26.0278
6     12     0.24          142.667             0.198              102.694                     20.9624
6     12     0.24          142.667             0.2004              102.694                     20.9624
6     12     0.24          142.667             0.2028              72.7419                     17.6425
6     12     0.24          142.667             0.2052              124.089                     23.0428
6     12     0.24          142.667             0.2076              98.4156                     20.5211
6     12     0.24          142.667             0.21              89.8577                     19.6086
6     12     0.24          142.667             0.2124              128.368                     23.4367
6     12     0.24          142.667             0.2148              81.2998                     18.6515
6     12     0.24          142.667             0.2172              34.2315                     12.1027
6     12     0.24          142.667             0.2196              0                     0
6     12     0.24          142.667             0.222              0                     0
6     12     0.24          142.667             0.2244              0                     0
6     12     0.24          142.667             0.2268              0                     0
6     12     0.24          142.667             0.2292              0                     0
6     12     0.24          142.667             0.2316              0                     0
6     12     0.24          142.667             0.234              0                     0
6     12     0.24          142.667             0.2364              0                     0
*******************************************************************************************************
 Average angle 142.643 +- 0.893492 deg 
 Average E' 0.138005 +- 0.000864438 GeV 
