*******************************************************************************************************
Z     A     E(GeV)     Theta(deg)     Energy Loss(GeV)     Sigma(#mub/sr/GeV)     ERROR     Citation     
*******************************************************************************************************
6     12     3.595          15.6667             0.017975              0                     0
6     12     3.595          15.6667             0.053925              0                     0
6     12     3.595          15.6667             0.089875              0                     0
6     12     3.595          15.6667             0.125825              0                     0
6     12     3.595          15.6667             0.161775              0                     0
6     12     3.595          15.6667             0.197725              0                     0
6     12     3.595          15.6667             0.233675              39.1356                     7.82712
6     12     3.595          15.6667             0.269625              270.818                     20.5899
6     12     3.595          15.6667             0.305575              767.058                     34.6521
6     12     3.595          15.6667             0.341525              1452.71                     47.6877
6     12     3.595          15.6667             0.377475              2172.81                     58.3213
6     12     3.595          15.6667             0.413425              2820.89                     66.4522
6     12     3.595          15.6667             0.449375              3231.04                     71.1192
6     12     3.595          15.6667             0.485325              2988.4                     68.3967
6     12     3.595          15.6667             0.521275              2924.21                     67.6582
6     12     3.595          15.6667             0.557225              2592.34                     63.7034
6     12     3.595          15.6667             0.593175              2387.27                     61.1318
6     12     3.595          15.6667             0.629125              2373.18                     60.9511
6     12     3.595          15.6667             0.665075              2424.84                     61.6109
6     12     3.595          15.6667             0.701025              2609.56                     63.9146
6     12     3.595          15.6667             0.736975              2903.86                     67.4224
6     12     3.595          15.6667             0.772925              3043.19                     69.0208
6     12     3.595          15.6667             0.808875              2975.87                     68.2532
6     12     3.595          15.6667             0.844825              2947.69                     67.9293
6     12     3.595          15.6667             0.880775              3093.28                     69.5866
6     12     3.595          15.6667             0.916725              3157.46                     70.3048
6     12     3.595          15.6667             0.952675              3367.23                     72.6026
6     12     3.595          15.6667             0.988625              3440.8                     73.3915
6     12     3.595          15.6667             1.02458              3631.78                     75.4008
6     12     3.595          15.6667             1.06053              3930.78                     78.4432
6     12     3.595          15.6667             1.09648              4074.8                     79.8673
6     12     3.595          15.6667             1.13243              4495.9                     83.8927
6     12     3.595          15.6667             1.16838              4552.25                     84.4169
6     12     3.595          15.6667             1.20433              4647.75                     85.2977
6     12     3.595          15.6667             1.24028              4859.08                     87.2154
6     12     3.595          15.6667             1.27623              4790.2                     86.595
6     12     3.595          15.6667             1.31218              4868.47                     87.2996
6     12     3.595          15.6667             1.34813              4719.75                     85.9559
6     12     3.595          15.6667             1.38408              4572.61                     84.6054
6     12     3.595          15.6667             1.42003              4638.35                     85.2115
6     12     3.595          15.6667             1.45598              4267.35                     81.7326
6     12     3.595          15.6667             1.49193              4333.1                     82.3598
6     12     3.595          15.6667             1.52788              4117.07                     80.2805
6     12     3.595          15.6667             1.56383              4032.53                     79.452
6     12     3.595          15.6667             1.59978              3721.01                     76.3215
6     12     3.595          15.6667             1.63573              3598.91                     75.0588
6     12     3.595          15.6667             1.67168              3644.31                     75.5307
6     12     3.595          15.6667             1.70763              3558.21                     74.6332
6     12     3.595          15.6667             1.74358              3396.97                     72.9226
6     12     3.595          15.6667             1.77953              3245.13                     71.2741
6     12     3.595          15.6667             1.81548              3337.49                     72.2813
6     12     3.595          15.6667             1.85143              3118.33                     69.8678
6     12     3.595          15.6667             1.88738              3097.98                     69.6394
6     12     3.595          15.6667             1.92333              3011.88                     68.6649
6     12     3.595          15.6667             1.95928              2944.56                     67.8932
6     12     3.595          15.6667             1.99523              2899.17                     67.3678
6     12     3.595          15.6667             2.03118              2908.56                     67.4769
6     12     3.595          15.6667             2.06712              2824.03                     66.4891
6     12     3.595          15.6667             2.10308              2739.49                     65.4864
6     12     3.595          15.6667             2.13903              2647.13                     64.373
6     12     3.595          15.6667             2.17497              2653.39                     64.4491
6     12     3.595          15.6667             2.21093              2568.86                     63.4142
6     12     3.595          15.6667             2.24688              2540.68                     63.0654
6     12     3.595          15.6667             2.28282              2454.59                     61.9876
6     12     3.595          15.6667             2.31878              2424.84                     61.6109
6     12     3.595          15.6667             2.35473              2525.03                     62.8708
6     12     3.595          15.6667             2.39067              2298.04                     59.9784
6     12     3.595          15.6667             2.42663              2329.35                     60.3856
6     12     3.595          15.6667             2.46258              2236.99                     59.1764
6     12     3.595          15.6667             2.49852              2224.47                     59.0105
6     12     3.595          15.6667             2.53448              2107.06                     57.4321
6     12     3.595          15.6667             2.57043              1974                     55.5891
6     12     3.595          15.6667             2.60637              1970.87                     55.545
6     12     3.595          15.6667             2.64233              1964.61                     55.4567
6     12     3.595          15.6667             2.67828              1826.85                     53.4771
6     12     3.595          15.6667             2.71422              1806.5                     53.1784
6     12     3.595          15.6667             2.75018              1679.7                     51.2781
6     12     3.595          15.6667             2.78613              1670.31                     51.1345
6     12     3.595          15.6667             2.82207              1640.56                     50.6772
6     12     3.595          15.6667             2.85803              1538.81                     49.0805
6     12     3.595          15.6667             2.89398              1496.55                     48.4018
6     12     3.595          15.6667             2.92992              1479.33                     48.1225
6     12     3.595          15.6667             2.96588              1421.41                     47.171
6     12     3.595          15.6667             3.00183              1333.74                     45.6932
6     12     3.595          15.6667             3.03777              1336.87                     45.7468
6     12     3.595          15.6667             3.07373              1241.38                     44.0828
6     12     3.595          15.6667             3.10968              1133.37                     42.1213
6     12     3.595          15.6667             3.14562              1069.18                     40.9112
6     12     3.595          15.6667             3.18158              1048.83                     40.52
6     12     3.595          15.6667             3.21753              1025.35                     40.0639
6     12     3.595          15.6667             3.25347              904.815                     37.6354
6     12     3.595          15.6667             3.28943              871.941                     36.9453
6     12     3.595          15.6667             3.32538              798.367                     35.3523
6     12     3.595          15.6667             3.36132              666.871                     32.31
6     12     3.595          15.6667             3.39728              576.076                     30.03
6     12     3.595          15.6667             3.43323              513.459                     28.351
6     12     3.595          15.6667             3.46917              378.833                     24.3523
6     12     3.595          15.6667             3.50513              245.772                     19.6147
6     12     3.595          15.6667             3.54108              12.5234                     4.42769
*******************************************************************************************************
 Average angle 15.5003 +- 0.039989 deg 
 Average E' 1.96958 +- 0.00508126 GeV 
