*******************************************************************************************************
Z     A     E(GeV)     Theta(deg)     Energy Loss(GeV)     Sigma(#mub/sr/GeV)     ERROR     Citation     
*******************************************************************************************************
6     12     0.62          70             0.0031              0                     0
6     12     0.62          70             0.0093              0                     0
6     12     0.62          70             0.0155              0                     0
6     12     0.62          70             0.0217              0                     0
6     12     0.62          70             0.0279              0                     0
6     12     0.62          70             0.0341              0                     0
6     12     0.62          70             0.0403              0                     0
6     12     0.62          70             0.0465              0                     0
6     12     0.62          70             0.0527              0                     0
6     12     0.62          70             0.0589              0                     0
6     12     0.62          70             0.0651              0                     0
6     12     0.62          70             0.0713              0                     0
6     12     0.62          70             0.0775              0                     0
6     12     0.62          70             0.0837              0                     0
6     12     0.62          70             0.0899              0                     0
6     12     0.62          70             0.0961              0                     0
6     12     0.62          70             0.1023              8.49785                     3.80035
6     12     0.62          70             0.1085              35.691                     7.78841
6     12     0.62          70             0.1147              76.4807                     11.4011
6     12     0.62          70             0.1209              112.172                     13.8074
6     12     0.62          70             0.1271              224.343                     19.5266
6     12     0.62          70             0.1333              294.026                     22.3544
6     12     0.62          70             0.1395              382.403                     25.4936
6     12     0.62          70             0.1457              497.974                     29.092
6     12     0.62          70             0.1519              606.747                     32.1124
6     12     0.62          70             0.1581              695.124                     34.3717
6     12     0.62          70             0.1643              856.583                     38.1553
6     12     0.62          70             0.1705              922.867                     39.604
6     12     0.62          70             0.1767              1053.73                     42.319
6     12     0.62          70             0.1829              1145.51                     44.1234
6     12     0.62          70             0.1891              1342.66                     47.7697
6     12     0.62          70             0.1953              1398.75                     48.7572
6     12     0.62          70             0.2015              1400.45                     48.7868
6     12     0.62          70             0.2077              1480.33                     50.1589
6     12     0.62          70             0.2139              1366.45                     48.1911
6     12     0.62          70             0.2201              1391.95                     48.6386
6     12     0.62          70             0.2263              1349.46                     47.8905
6     12     0.62          70             0.2325              1230.49                     45.7308
6     12     0.62          70             0.2387              1148.91                     44.1888
6     12     0.62          70             0.2449              1126.82                     43.7619
6     12     0.62          70             0.2511              1089.42                     43.0297
6     12     0.62          70             0.2573              938.163                     39.9309
6     12     0.62          70             0.2635              931.365                     39.7859
6     12     0.62          70             0.2697              936.463                     39.8947
6     12     0.62          70             0.2759              868.48                     38.4193
6     12     0.62          70             0.2821              876.978                     38.6068
6     12     0.62          70             0.2883              834.489                     37.66
6     12     0.62          70             0.2945              822.592                     37.3905
6     12     0.62          70             0.3007              752.91                     35.7718
6     12     0.62          70             0.3069              705.322                     34.6229
6     12     0.62          70             0.3131              683.227                     34.0763
6     12     0.62          70             0.3193              645.837                     33.1307
6     12     0.62          70             0.3255              669.631                     33.7355
6     12     0.62          70             0.3317              696.824                     34.4137
6     12     0.62          70             0.3379              725.717                     35.1199
6     12     0.62          70             0.3441              608.446                     32.1574
6     12     0.62          70             0.3503              732.515                     35.284
6     12     0.62          70             0.3565              734.214                     35.3249
6     12     0.62          70             0.3627              786.901                     36.5704
6     12     0.62          70             0.3689              873.579                     38.5319
6     12     0.62          70             0.3751              846.386                     37.9275
6     12     0.62          70             0.3813              946.661                     40.1113
6     12     0.62          70             0.3875              1048.63                     42.2165
6     12     0.62          70             0.3937              1079.23                     42.8278
6     12     0.62          70             0.3999              1147.21                     44.1561
6     12     0.62          70             0.4061              1237.29                     45.8569
6     12     0.62          70             0.4123              1199.9                     45.1587
6     12     0.62          70             0.4185              1232.19                     45.7623
6     12     0.62          70             0.4247              1344.36                     47.7999
6     12     0.62          70             0.4309              1312.07                     47.2224
6     12     0.62          70             0.4371              1312.07                     47.2224
6     12     0.62          70             0.4433              1312.07                     47.2224
6     12     0.62          70             0.4495              1330.76                     47.5576
6     12     0.62          70             0.4557              1284.88                     46.7305
6     12     0.62          70             0.4619              1340.96                     47.7395
6     12     0.62          70             0.4681              1286.57                     46.7614
6     12     0.62          70             0.4743              1247.48                     46.0455
6     12     0.62          70             0.4805              1205                     45.2546
6     12     0.62          70             0.4867              1227.09                     45.6676
6     12     0.62          70             0.4929              1186.3                     44.9021
6     12     0.62          70             0.4991              1111.52                     43.4638
6     12     0.62          70             0.5053              1120.02                     43.6297
6     12     0.62          70             0.5115              1018.04                     41.5961
6     12     0.62          70             0.5177              1046.94                     42.1822
6     12     0.62          70             0.5239              909.27                     39.3112
6     12     0.62          70             0.5301              910.97                     39.3479
6     12     0.62          70             0.5363              944.961                     40.0753
6     12     0.62          70             0.5425              883.777                     38.7562
6     12     0.62          70             0.5487              749.511                     35.691
6     12     0.62          70             0.5549              768.206                     36.1334
6     12     0.62          70             0.5611              761.408                     35.9731
6     12     0.62          70             0.5673              761.408                     35.9731
6     12     0.62          70             0.5735              725.717                     35.1199
6     12     0.62          70             0.5797              747.811                     35.6505
6     12     0.62          70             0.5859              657.734                     33.4345
6     12     0.62          70             0.5921              582.953                     31.4765
6     12     0.62          70             0.5983              39.0901                     8.15085
6     12     0.62          70             0.6045              0                     0
6     12     0.62          70             0.6107              0                     0
*******************************************************************************************************
 Average angle 69.9697 +- 0.335487 deg 
 Average E' 0.257367 +- 0.00123401 GeV 
