*******************************************************************************************************
Z     A     E(GeV)     Theta(deg)     Energy Loss(GeV)     Sigma(#mub/sr/GeV)     ERROR     Citation     
*******************************************************************************************************
6     12     0.62          48             0.0031              0                     0
6     12     0.62          48             0.0093              0                     0
6     12     0.62          48             0.0155              0                     0
6     12     0.62          48             0.0217              0                     0
6     12     0.62          48             0.0279              0                     0
6     12     0.62          48             0.0341              0                     0
6     12     0.62          48             0.0403              0                     0
6     12     0.62          48             0.0465              0                     0
6     12     0.62          48             0.0527              195.566                     20.5009
6     12     0.62          48             0.0589              857.481                     42.9277
6     12     0.62          48             0.0651              1650.49                     59.5569
6     12     0.62          48             0.0713              2355.39                     71.147
6     12     0.62          48             0.0775              3354.71                     84.9088
6     12     0.62          48             0.0837              4121.93                     94.1187
6     12     0.62          48             0.0899              5061.07                     104.291
6     12     0.62          48             0.0961              6210.83                     115.532
6     12     0.62          48             0.1023              6982.34                     122.497
6     12     0.62          48             0.1085              7753.86                     129.088
6     12     0.62          48             0.1147              8570.51                     135.715
6     12     0.62          48             0.1209              9382.86                     142.002
6     12     0.62          48             0.1271              9612.81                     143.731
6     12     0.62          48             0.1333              9245.32                     140.957
6     12     0.62          48             0.1395              8817.65                     137.658
6     12     0.62          48             0.1457              8551.17                     135.562
6     12     0.62          48             0.1519              8179.38                     132.582
6     12     0.62          48             0.1581              7504.57                     126.996
6     12     0.62          48             0.1643              6677.17                     119.79
6     12     0.62          48             0.1705              6019.56                     113.739
6     12     0.62          48             0.1767              5508.08                     108.799
6     12     0.62          48             0.1829              5048.18                     104.158
6     12     0.62          48             0.1891              4463.63                     97.9422
6     12     0.62          48             0.1953              4044.56                     93.2312
6     12     0.62          48             0.2015              3438.52                     85.963
6     12     0.62          48             0.2077              3025.9                     80.6404
6     12     0.62          48             0.2139              2692.79                     76.0724
6     12     0.62          48             0.2201              2353.24                     71.1146
6     12     0.62          48             0.2263              1914.83                     64.1491
6     12     0.62          48             0.2325              1704.22                     60.5185
6     12     0.62          48             0.2387              1510.8                     56.9809
6     12     0.62          48             0.2449              1377.56                     54.4102
6     12     0.62          48             0.2511              1188.44                     50.5375
6     12     0.62          48             0.2573              1080.98                     48.1987
6     12     0.62          48             0.2635              900.462                     43.9905
6     12     0.62          48             0.2697              883.27                     43.5685
6     12     0.62          48             0.2759              947.742                     45.1306
6     12     0.62          48             0.2821              992.872                     46.1926
6     12     0.62          48             0.2883              1048.75                     47.4746
6     12     0.62          48             0.2945              1192.74                     50.6288
6     12     0.62          48             0.3007              1255.06                     51.9347
6     12     0.62          48             0.3069              1480.71                     56.4107
6     12     0.62          48             0.3131              1439.88                     55.6274
6     12     0.62          48             0.3193              1611.81                     58.8548
6     12     0.62          48             0.3255              1852.5                     63.0965
6     12     0.62          48             0.3317              1850.35                     63.0599
6     12     0.62          48             0.3379              2065.26                     66.6213
6     12     0.62          48             0.3441              2194.21                     68.6696
6     12     0.62          48             0.3503              2555.25                     74.1041
6     12     0.62          48             0.3565              2677.75                     75.8596
6     12     0.62          48             0.3627              2770.16                     77.1575
6     12     0.62          48             0.3689              3010.85                     80.4397
6     12     0.62          48             0.3751              3126.9                     81.9753
6     12     0.62          48             0.3813              3389.09                     85.3429
6     12     0.62          48             0.3875              3674.92                     88.8688
6     12     0.62          48             0.3937              3571.76                     87.6127
6     12     0.62          48             0.3999              3649.13                     88.5565
6     12     0.62          48             0.4061              3621.19                     88.2168
6     12     0.62          48             0.4123              3623.34                     88.243
6     12     0.62          48             0.4185              3689.96                     89.0506
6     12     0.62          48             0.4247              3573.91                     87.639
6     12     0.62          48             0.4309              3537.38                     87.1899
6     12     0.62          48             0.4371              3515.89                     86.9247
6     12     0.62          48             0.4433              3258                     83.676
6     12     0.62          48             0.4495              3309.57                     84.3358
6     12     0.62          48             0.4557              3187.08                     82.7603
6     12     0.62          48             0.4619              2987.21                     80.1233
6     12     0.62          48             0.4681              2877.61                     78.6397
6     12     0.62          48             0.4743              3028.05                     80.6691
6     12     0.62          48             0.4805              2785.2                     77.3667
6     12     0.62          48             0.4867              2697.09                     76.1331
6     12     0.62          48             0.4929              2385.47                     71.6
6     12     0.62          48             0.4991              2346.79                     71.0171
6     12     0.62          48             0.5053              2336.04                     70.8543
6     12     0.62          48             0.5115              2030.88                     66.0644
6     12     0.62          48             0.5177              2174.86                     68.3663
6     12     0.62          48             0.5239              1790.18                     62.026
6     12     0.62          48             0.5301              1796.63                     62.1376
6     12     0.62          48             0.5363              1822.42                     62.582
6     12     0.62          48             0.5425              1702.07                     60.4803
6     12     0.62          48             0.5487              1605.36                     58.737
6     12     0.62          48             0.5549              1527.99                     57.3042
6     12     0.62          48             0.5611              1493.61                     56.6557
6     12     0.62          48             0.5673              1422.69                     55.2943
6     12     0.62          48             0.5735              244.995                     22.9458
6     12     0.62          48             0.5797              0                     0
6     12     0.62          48             0.5859              0                     0
6     12     0.62          48             0.5921              0                     0
6     12     0.62          48             0.5983              0                     0
6     12     0.62          48             0.6045              0                     0
6     12     0.62          48             0.6107              0                     0
*******************************************************************************************************
 Average angle 47.9498 +- 0.133087 deg 
 Average E' 0.357098 +- 0.000991139 GeV 
