*******************************************************************************************************
Z     A     E(GeV)     Theta(deg)     Energy Loss(GeV)     Sigma(#mub/sr/GeV)     ERROR     Citation     
*******************************************************************************************************
6     12     0.48          110.667             0.0024              0                     0
6     12     0.48          110.667             0.0072              0                     0
6     12     0.48          110.667             0.012              0                     0
6     12     0.48          110.667             0.0168              0                     0
6     12     0.48          110.667             0.0216              0                     0
6     12     0.48          110.667             0.0264              0                     0
6     12     0.48          110.667             0.0312              0                     0
6     12     0.48          110.667             0.036              0                     0
6     12     0.48          110.667             0.0408              0                     0
6     12     0.48          110.667             0.0456              0                     0
6     12     0.48          110.667             0.0504              0                     0
6     12     0.48          110.667             0.0552              0                     0
6     12     0.48          110.667             0.06              0                     0
6     12     0.48          110.667             0.0648              0                     0
6     12     0.48          110.667             0.0696              0                     0
6     12     0.48          110.667             0.0744              0                     0
6     12     0.48          110.667             0.0792              0                     0
6     12     0.48          110.667             0.084              0                     0
6     12     0.48          110.667             0.0888              0                     0
6     12     0.48          110.667             0.0936              0                     0
6     12     0.48          110.667             0.0984              0                     0
6     12     0.48          110.667             0.1032              0                     0
6     12     0.48          110.667             0.108              0                     0
6     12     0.48          110.667             0.1128              0                     0
6     12     0.48          110.667             0.1176              4.04675                     2.86148
6     12     0.48          110.667             0.1224              14.1636                     5.35335
6     12     0.48          110.667             0.1272              18.2104                     6.07013
6     12     0.48          110.667             0.132              36.4208                     8.58445
6     12     0.48          110.667             0.1368              52.6078                     10.3172
6     12     0.48          110.667             0.1416              72.8415                     12.1403
6     12     0.48          110.667             0.1464              101.169                     14.3074
6     12     0.48          110.667             0.1512              147.706                     17.2877
6     12     0.48          110.667             0.156              196.267                     19.9279
6     12     0.48          110.667             0.1608              192.221                     19.7214
6     12     0.48          110.667             0.1656              222.571                     21.2213
6     12     0.48          110.667             0.1704              303.506                     24.7812
6     12     0.48          110.667             0.1752              291.366                     24.2805
6     12     0.48          110.667             0.18              321.717                     25.5138
6     12     0.48          110.667             0.1848              437.049                     29.7374
6     12     0.48          110.667             0.1896              471.446                     30.8855
6     12     0.48          110.667             0.1944              511.914                     32.1838
6     12     0.48          110.667             0.1992              520.007                     32.4372
6     12     0.48          110.667             0.204              558.452                     33.6148
6     12     0.48          110.667             0.2088              562.498                     33.7364
6     12     0.48          110.667             0.2136              544.288                     33.1858
6     12     0.48          110.667             0.2184              584.755                     34.3974
6     12     0.48          110.667             0.2232              621.176                     35.4524
6     12     0.48          110.667             0.228              598.919                     34.8115
6     12     0.48          110.667             0.2328              566.545                     33.8575
6     12     0.48          110.667             0.2376              600.942                     34.8702
6     12     0.48          110.667             0.2424              469.423                     30.8191
6     12     0.48          110.667             0.2472              570.592                     33.9782
6     12     0.48          110.667             0.252              600.942                     34.8702
6     12     0.48          110.667             0.2568              503.82                     31.9283
6     12     0.48          110.667             0.2616              473.47                     30.9517
6     12     0.48          110.667             0.2664              528.101                     32.6886
6     12     0.48          110.667             0.2712              515.961                     32.3107
6     12     0.48          110.667             0.276              485.61                     31.346
6     12     0.48          110.667             0.2808              568.568                     33.918
6     12     0.48          110.667             0.2856              449.189                     30.1476
6     12     0.48          110.667             0.2904              481.563                     31.2151
6     12     0.48          110.667             0.2952              445.143                     30.0115
6     12     0.48          110.667             0.3              416.815                     29.0409
6     12     0.48          110.667             0.3048              418.839                     29.1113
6     12     0.48          110.667             0.3096              358.137                     26.9193
6     12     0.48          110.667             0.3144              364.208                     27.1464
6     12     0.48          110.667             0.3192              350.044                     26.6133
6     12     0.48          110.667             0.324              337.904                     26.1478
6     12     0.48          110.667             0.3288              370.278                     27.3717
6     12     0.48          110.667             0.3336              352.067                     26.6902
6     12     0.48          110.667             0.3384              392.535                     28.1824
6     12     0.48          110.667             0.3432              428.956                     29.4608
6     12     0.48          110.667             0.348              435.026                     29.6685
6     12     0.48          110.667             0.3528              568.568                     33.918
6     12     0.48          110.667             0.3576              487.633                     31.4112
6     12     0.48          110.667             0.3624              499.774                     31.7998
6     12     0.48          110.667             0.3672              544.288                     33.1858
6     12     0.48          110.667             0.372              627.246                     35.6252
6     12     0.48          110.667             0.3768              689.971                     37.364
6     12     0.48          110.667             0.3816              740.555                     38.7094
6     12     0.48          110.667             0.3864              750.672                     38.973
6     12     0.48          110.667             0.3912              809.35                     40.4675
6     12     0.48          110.667             0.396              942.893                     43.6787
6     12     0.48          110.667             0.4008              932.776                     43.4437
6     12     0.48          110.667             0.4056              936.823                     43.5378
6     12     0.48          110.667             0.4104              979.314                     44.5143
6     12     0.48          110.667             0.4152              981.337                     44.5602
6     12     0.48          110.667             0.42              1066.32                     46.4496
6     12     0.48          110.667             0.4248              1060.25                     46.3172
6     12     0.48          110.667             0.4296              1076.44                     46.6694
6     12     0.48          110.667             0.4344              1060.25                     46.3172
6     12     0.48          110.667             0.4392              1037.99                     45.8284
6     12     0.48          110.667             0.444              1054.18                     46.1844
6     12     0.48          110.667             0.4488              1088.58                     46.9318
6     12     0.48          110.667             0.4536              1110.83                     47.4092
6     12     0.48          110.667             0.4584              1086.55                     46.8882
6     12     0.48          110.667             0.4632              859.935                     41.713
6     12     0.48          110.667             0.468              0                     0
6     12     0.48          110.667             0.4728              0                     0
*******************************************************************************************************
 Average angle 110.647 +- 0.788309 deg 
 Average E' 0.142986 +- 0.00101871 GeV 
