*******************************************************************************************************
Z     A     E(GeV)     Theta(deg)     Energy Loss(GeV)     Sigma(#mub/sr/GeV)     ERROR     Citation     
*******************************************************************************************************
6     12     0.48          68             0.0024              0                     0
6     12     0.48          68             0.0072              0                     0
6     12     0.48          68             0.012              0                     0
6     12     0.48          68             0.0168              0                     0
6     12     0.48          68             0.0216              0                     0
6     12     0.48          68             0.0264              0                     0
6     12     0.48          68             0.0312              0                     0
6     12     0.48          68             0.036              0                     0
6     12     0.48          68             0.0408              0                     0
6     12     0.48          68             0.0456              0                     0
6     12     0.48          68             0.0504              0                     0
6     12     0.48          68             0.0552              44.9207                     9.57712
6     12     0.48          68             0.06              187.85                     19.5847
6     12     0.48          68             0.0648              371.617                     27.5461
6     12     0.48          68             0.0696              532.923                     32.9871
6     12     0.48          68             0.0744              835.117                     41.2939
6     12     0.48          68             0.0792              1161.81                     48.7057
6     12     0.48          68             0.084              1525.26                     55.8064
6     12     0.48          68             0.0888              1809.08                     60.7772
6     12     0.48          68             0.0936              2139.86                     66.1005
6     12     0.48          68             0.0984              2491.06                     71.3187
6     12     0.48          68             0.1032              2876.97                     76.6442
6     12     0.48          68             0.108              3130.16                     79.9457
6     12     0.48          68             0.1128              3362.93                     82.8649
6     12     0.48          68             0.1176              3732.5                     87.2995
6     12     0.48          68             0.1224              4089.83                     91.3828
6     12     0.48          68             0.1272              4251.13                     93.1674
6     12     0.48          68             0.132              4287.88                     93.5693
6     12     0.48          68             0.1368              4253.17                     93.1898
6     12     0.48          68             0.1416              4079.62                     91.2686
6     12     0.48          68             0.1464              3979.57                     90.1425
6     12     0.48          68             0.1512              3795.8                     88.0366
6     12     0.48          68             0.156              3599.78                     85.7334
6     12     0.48          68             0.1608              3483.4                     84.3361
6     12     0.48          68             0.1656              3293.5                     82.0051
6     12     0.48          68             0.1704              3115.86                     79.7629
6     12     0.48          68             0.1752              2909.64                     77.0781
6     12     0.48          68             0.18              2568.65                     72.4209
6     12     0.48          68             0.1848              2503.31                     71.4939
6     12     0.48          68             0.1896              2168.44                     66.5405
6     12     0.48          68             0.1944              1982.64                     63.6258
6     12     0.48          68             0.1992              1864.21                     61.6963
6     12     0.48          68             0.204              1706.99                     59.0374
6     12     0.48          68             0.2088              1625.31                     57.6077
6     12     0.48          68             0.2136              1341.5                     52.3367
6     12     0.48          68             0.2184              1214.9                     49.8061
6     12     0.48          68             0.2232              1149.56                     48.4482
6     12     0.48          68             0.228              967.837                     44.4542
6     12     0.48          68             0.2328              855.535                     41.7956
6     12     0.48          68             0.2376              771.819                     39.6981
6     12     0.48          68             0.2424              659.517                     36.6965
6     12     0.48          68             0.2472              655.434                     36.5827
6     12     0.48          68             0.252              571.718                     34.1667
6     12     0.48          68             0.2568              510.462                     32.2845
6     12     0.48          68             0.2616              528.839                     32.8605
6     12     0.48          68             0.2664              545.174                     33.3641
6     12     0.48          68             0.2712              616.639                     35.4836
6     12     0.48          68             0.276              610.513                     35.3069
6     12     0.48          68             0.2808              635.015                     36.0084
6     12     0.48          68             0.2856              669.727                     36.9795
6     12     0.48          68             0.2904              692.187                     37.5944
6     12     0.48          68             0.2952              704.438                     37.9257
6     12     0.48          68             0.3              790.196                     40.1679
6     12     0.48          68             0.3048              747.317                     39.0629
6     12     0.48          68             0.3096              890.246                     42.6351
6     12     0.48          68             0.3144              965.795                     44.4073
6     12     0.48          68             0.3192              994.381                     45.0597
6     12     0.48          68             0.324              1092.39                     47.2281
6     12     0.48          68             0.3288              1145.48                     48.3621
6     12     0.48          68             0.3336              1339.45                     52.2969
6     12     0.48          68             0.3384              1529.35                     55.8811
6     12     0.48          68             0.3432              1572.22                     56.659
6     12     0.48          68             0.348              1794.79                     60.5366
6     12     0.48          68             0.3528              1825.41                     61.051
6     12     0.48          68             0.3576              1978.55                     63.5603
6     12     0.48          68             0.3624              2009.18                     64.0503
6     12     0.48          68             0.3672              2201.11                     67.0399
6     12     0.48          68             0.372              2133.73                     66.0058
6     12     0.48          68             0.3768              2268.5                     68.0583
6     12     0.48          68             0.3816              2305.25                     68.6074
6     12     0.48          68             0.3864              2364.46                     69.4829
6     12     0.48          68             0.3912              2437.97                     70.5547
6     12     0.48          68             0.396              2544.14                     72.0747
6     12     0.48          68             0.4008              2580.9                     72.5934
6     12     0.48          68             0.4056              2560.48                     72.3057
6     12     0.48          68             0.4104              2462.47                     70.9084
6     12     0.48          68             0.4152              2680.95                     73.9871
6     12     0.48          68             0.42              2629.9                     73.2794
6     12     0.48          68             0.4248              2462.47                     70.9084
6     12     0.48          68             0.4296              2525.77                     71.8139
6     12     0.48          68             0.4344              2519.64                     71.7268
6     12     0.48          68             0.4392              2552.31                     72.1903
6     12     0.48          68             0.444              2354.25                     69.3328
6     12     0.48          68             0.4488              249.106                     22.553
6     12     0.48          68             0.4536              0                     0
6     12     0.48          68             0.4584              0                     0
6     12     0.48          68             0.4632              0                     0
6     12     0.48          68             0.468              0                     0
6     12     0.48          68             0.4728              0                     0
*******************************************************************************************************
 Average angle 67.9626 +- 0.24434 deg 
 Average E' 0.235959 +- 0.000848323 GeV 
