*******************************************************************************************************
Z     A     E(GeV)     Theta(deg)     Energy Loss(GeV)     Sigma(#mub/sr/GeV)     ERROR     Citation     
*******************************************************************************************************
6     12     0.24          133.333             0.0012              24.9731                     9.43894
6     12     0.24          133.333             0.0036              42.811                     12.3585
6     12     0.24          133.333             0.006              78.4868                     16.7334
6     12     0.24          133.333             0.0084              67.7841                     15.5507
6     12     0.24          133.333             0.0108              85.622                     17.4775
6     12     0.24          133.333             0.0132              117.73                     20.4942
6     12     0.24          133.333             0.0156              103.46                     19.212
6     12     0.24          133.333             0.018              96.3247                     18.5377
6     12     0.24          133.333             0.0204              114.163                     20.1813
6     12     0.24          133.333             0.0228              82.0544                     17.1095
6     12     0.24          133.333             0.0252              167.676                     24.4581
6     12     0.24          133.333             0.0276              128.433                     21.4055
6     12     0.24          133.333             0.03              149.838                     23.1206
6     12     0.24          133.333             0.0324              210.487                     27.4031
6     12     0.24          133.333             0.0348              149.838                     23.1206
6     12     0.24          133.333             0.0372              185.514                     25.7262
6     12     0.24          133.333             0.0396              178.379                     25.2266
6     12     0.24          133.333             0.042              242.596                     29.419
6     12     0.24          133.333             0.0444              417.407                     38.5893
6     12     0.24          133.333             0.0468              513.732                     42.811
6     12     0.24          133.333             0.0492              792.003                     53.1558
6     12     0.24          133.333             0.0516              913.301                     57.0813
6     12     0.24          133.333             0.054              1494.82                     73.0266
6     12     0.24          133.333             0.0564              1815.9                     80.4883
6     12     0.24          133.333             0.0588              1901.52                     82.3641
6     12     0.24          133.333             0.0612              2094.17                     86.4357
6     12     0.24          133.333             0.0636              2497.31                     94.3894
6     12     0.24          133.333             0.066              2429.52                     93.0996
6     12     0.24          133.333             0.0684              2796.99                     99.8923
6     12     0.24          133.333             0.0708              3110.93                     105.349
6     12     0.24          133.333             0.0732              3121.64                     105.531
6     12     0.24          133.333             0.0756              3146.61                     105.952
6     12     0.24          133.333             0.078              3785.21                     116.207
6     12     0.24          133.333             0.0804              3803.04                     116.48
6     12     0.24          133.333             0.0828              3942.18                     118.592
6     12     0.24          133.333             0.0852              4045.64                     120.138
6     12     0.24          133.333             0.0876              3874.4                     117.568
6     12     0.24          133.333             0.09              3845.85                     117.134
6     12     0.24          133.333             0.0924              3781.64                     116.152
6     12     0.24          133.333             0.0948              4031.37                     119.926
6     12     0.24          133.333             0.0972              3742.39                     115.548
6     12     0.24          133.333             0.0996              3931.48                     118.431
6     12     0.24          133.333             0.102              3656.77                     114.218
6     12     0.24          133.333             0.1044              3642.5                     113.995
6     12     0.24          133.333             0.1068              3610.39                     113.492
6     12     0.24          133.333             0.1092              3499.8                     111.74
6     12     0.24          133.333             0.1116              3278.61                     108.151
6     12     0.24          133.333             0.114              3014.61                     103.706
6     12     0.24          133.333             0.1164              2907.58                     101.848
6     12     0.24          133.333             0.1188              2668.55                     97.5719
6     12     0.24          133.333             0.1212              2597.2                     96.2587
6     12     0.24          133.333             0.1236              2422.39                     92.9628
6     12     0.24          133.333             0.126              2297.52                     90.5351
6     12     0.24          133.333             0.1284              2169.09                     87.9682
6     12     0.24          133.333             0.1308              2197.63                     88.5451
6     12     0.24          133.333             0.1332              1876.55                     81.8214
6     12     0.24          133.333             0.1356              1794.49                     80.0125
6     12     0.24          133.333             0.138              1523.36                     73.7205
6     12     0.24          133.333             0.1404              1523.36                     73.7205
6     12     0.24          133.333             0.1428              1241.52                     66.5524
6     12     0.24          133.333             0.1452              1359.25                     69.6364
6     12     0.24          133.333             0.1476              1141.63                     63.8189
6     12     0.24          133.333             0.15              952.545                     58.2948
6     12     0.24          133.333             0.1524              956.112                     58.4039
6     12     0.24          133.333             0.1548              745.625                     51.576
6     12     0.24          133.333             0.1572              717.084                     50.5792
6     12     0.24          133.333             0.1596              470.921                     40.9884
6     12     0.24          133.333             0.162              442.38                     39.7269
6     12     0.24          133.333             0.1644              356.758                     35.6758
6     12     0.24          133.333             0.1668              317.515                     33.6565
6     12     0.24          133.333             0.1692              271.136                     31.1015
6     12     0.24          133.333             0.1716              156.974                     23.6647
6     12     0.24          133.333             0.174              174.812                     24.9731
6     12     0.24          133.333             0.1764              156.974                     23.6647
6     12     0.24          133.333             0.1788              135.568                     21.9921
6     12     0.24          133.333             0.1812              121.298                     20.8024
6     12     0.24          133.333             0.1836              110.595                     19.8635
6     12     0.24          133.333             0.186              103.46                     19.212
6     12     0.24          133.333             0.1884              117.73                     20.4942
6     12     0.24          133.333             0.1908              124.865                     21.1061
6     12     0.24          133.333             0.1932              132.001                     21.7008
6     12     0.24          133.333             0.1956              89.1896                     17.8379
6     12     0.24          133.333             0.198              96.3247                     18.5377
6     12     0.24          133.333             0.2004              135.568                     21.9921
6     12     0.24          133.333             0.2028              110.595                     19.8635
6     12     0.24          133.333             0.2052              99.8923                     18.8779
6     12     0.24          133.333             0.2076              96.3247                     18.5377
6     12     0.24          133.333             0.21              128.433                     21.4055
6     12     0.24          133.333             0.2124              89.1896                     17.8379
6     12     0.24          133.333             0.2148              53.5137                     13.8172
6     12     0.24          133.333             0.2172              0                     0
6     12     0.24          133.333             0.2196              0                     0
6     12     0.24          133.333             0.222              0                     0
6     12     0.24          133.333             0.2244              0                     0
6     12     0.24          133.333             0.2268              0                     0
6     12     0.24          133.333             0.2292              0                     0
6     12     0.24          133.333             0.2316              0                     0
6     12     0.24          133.333             0.234              0                     0
6     12     0.24          133.333             0.2364              0                     0
*******************************************************************************************************
 Average angle 133.307 +- 0.714588 deg 
 Average E' 0.140811 +- 0.000754817 GeV 
