*******************************************************************************************************
Z     A     E(GeV)     Theta(deg)     Energy Loss(GeV)     Sigma(#mub/sr/GeV)     ERROR     Citation     
*******************************************************************************************************
6     12     0.56          72             0.0028              0                     0
6     12     0.56          72             0.0084              0                     0
6     12     0.56          72             0.014              0                     0
6     12     0.56          72             0.0196              0                     0
6     12     0.56          72             0.0252              0                     0
6     12     0.56          72             0.0308              0                     0
6     12     0.56          72             0.0364              0                     0
6     12     0.56          72             0.042              0                     0
6     12     0.56          72             0.0476              0                     0
6     12     0.56          72             0.0532              0                     0
6     12     0.56          72             0.0588              0                     0
6     12     0.56          72             0.0644              0                     0
6     12     0.56          72             0.07              0                     0
6     12     0.56          72             0.0756              0                     0
6     12     0.56          72             0.0812              0                     0
6     12     0.56          72             0.0868              32.4351                     7.64502
6     12     0.56          72             0.0924              70.276                     11.2532
6     12     0.56          72             0.098              133.344                     15.501
6     12     0.56          72             0.1036              248.669                     21.1681
6     12     0.56          72             0.1092              345.974                     24.9685
6     12     0.56          72             0.1148              518.961                     30.5801
6     12     0.56          72             0.1204              592.841                     32.6844
6     12     0.56          72             0.126              756.819                     36.929
6     12     0.56          72             0.1316              938.815                     41.1302
6     12     0.56          72             0.1372              1142.44                     45.3719
6     12     0.56          72             0.1428              1218.12                     46.8507
6     12     0.56          72             0.1484              1425.34                     50.6793
6     12     0.56          72             0.154              1683.02                     55.0701
6     12     0.56          72             0.1596              1866.82                     57.9992
6     12     0.56          72             0.1652              2012.78                     60.2239
6     12     0.56          72             0.1708              2113.69                     61.7151
6     12     0.56          72             0.1764              2223.6                     63.2995
6     12     0.56          72             0.182              2248.83                     63.6575
6     12     0.56          72             0.1876              2171.35                     62.5512
6     12     0.56          72             0.1932              2138.91                     62.0823
6     12     0.56          72             0.1988              2133.51                     62.0038
6     12     0.56          72             0.2044              1996.56                     59.9808
6     12     0.56          72             0.21              1861.41                     57.9152
6     12     0.56          72             0.2156              1753.3                     56.2081
6     12     0.56          72             0.2212              1641.58                     54.3878
6     12     0.56          72             0.2268              1706.45                     55.452
6     12     0.56          72             0.2324              1459.58                     51.2844
6     12     0.56          72             0.238              1371.28                     49.709
6     12     0.56          72             0.2436              1282.99                     48.082
6     12     0.56          72             0.2492              1342.45                     49.1836
6     12     0.56          72             0.2548              1194.69                     46.398
6     12     0.56          72             0.2604              1088.38                     44.2854
6     12     0.56          72             0.266              1005.49                     42.5657
6     12     0.56          72             0.2716              951.429                     41.4056
6     12     0.56          72             0.2772              915.39                     40.6139
6     12     0.56          72             0.2828              845.114                     39.0237
6     12     0.56          72             0.2884              791.056                     37.755
6     12     0.56          72             0.294              718.978                     35.9939
6     12     0.56          72             0.2996              751.413                     36.7968
6     12     0.56          72             0.3052              681.137                     35.0339
6     12     0.56          72             0.3108              700.958                     35.54
6     12     0.56          72             0.3164              709.968                     35.7677
6     12     0.56          72             0.322              801.867                     38.0122
6     12     0.56          72             0.3276              785.65                     37.6258
6     12     0.56          72             0.3332              924.4                     40.8132
6     12     0.56          72             0.3388              899.172                     40.2525
6     12     0.56          72             0.3444              985.666                     42.144
6     12     0.56          72             0.35              965.845                     41.7181
6     12     0.56          72             0.3556              1072.16                     43.9543
6     12     0.56          72             0.3612              1138.83                     45.3003
6     12     0.56          72             0.3668              1288.39                     48.1832
6     12     0.56          72             0.3724              1398.31                     50.1965
6     12     0.56          72             0.378              1437.96                     50.9031
6     12     0.56          72             0.3836              1529.85                     52.5045
6     12     0.56          72             0.3892              1657.79                     54.6558
6     12     0.56          72             0.3948              1762.31                     56.3523
6     12     0.56          72             0.4004              1744.29                     56.0635
6     12     0.56          72             0.406              1785.73                     56.7256
6     12     0.56          72             0.4116              1933.49                     59.0259
6     12     0.56          72             0.4172              1915.47                     58.7502
6     12     0.56          72             0.4228              1940.7                     59.1358
6     12     0.56          72             0.4284              1911.87                     58.6949
6     12     0.56          72             0.434              1911.87                     58.6949
6     12     0.56          72             0.4396              1919.08                     58.8054
6     12     0.56          72             0.4452              1883.04                     58.2506
6     12     0.56          72             0.4508              1874.03                     58.1111
6     12     0.56          72             0.4564              1886.64                     58.3063
6     12     0.56          72             0.462              1794.74                     56.8685
6     12     0.56          72             0.4676              1591.12                     53.5455
6     12     0.56          72             0.4732              1762.31                     56.3523
6     12     0.56          72             0.4788              1632.57                     54.2384
6     12     0.56          72             0.4844              1639.77                     54.358
6     12     0.56          72             0.49              1515.44                     52.2565
6     12     0.56          72             0.4956              1452.37                     51.1576
6     12     0.56          72             0.5012              1391.1                     50.0669
6     12     0.56          72             0.5068              1301.01                     48.4185
6     12     0.56          72             0.5124              1306.41                     48.519
6     12     0.56          72             0.518              1207.31                     46.6423
6     12     0.56          72             0.5236              1057.74                     43.6578
6     12     0.56          72             0.5292              1090.18                     44.3221
6     12     0.56          72             0.5348              414.448                     27.3279
6     12     0.56          72             0.5404              0                     0
6     12     0.56          72             0.546              0                     0
6     12     0.56          72             0.5516              0                     0
*******************************************************************************************************
 Average angle 71.9632 +- 0.294909 deg 
 Average E' 0.23545 +- 0.000964886 GeV 
