*******************************************************************************************************
Z     A     E(GeV)     Theta(deg)     Energy Loss(GeV)     Sigma(#mub/sr/GeV)     ERROR     Citation     
*******************************************************************************************************
6     12     0.68          78             0.0034              0                     0
6     12     0.68          78             0.0102              0                     0
6     12     0.68          78             0.017              0                     0
6     12     0.68          78             0.0238              0                     0
6     12     0.68          78             0.0306              0                     0
6     12     0.68          78             0.0374              0                     0
6     12     0.68          78             0.0442              0                     0
6     12     0.68          78             0.051              0                     0
6     12     0.68          78             0.0578              0                     0
6     12     0.68          78             0.0646              0                     0
6     12     0.68          78             0.0714              0                     0
6     12     0.68          78             0.0782              0                     0
6     12     0.68          78             0.085              0                     0
6     12     0.68          78             0.0918              0                     0
6     12     0.68          78             0.0986              0                     0
6     12     0.68          78             0.1054              0                     0
6     12     0.68          78             0.1122              0                     0
6     12     0.68          78             0.119              0                     0
6     12     0.68          78             0.1258              0                     0
6     12     0.68          78             0.1326              0                     0
6     12     0.68          78             0.1394              0                     0
6     12     0.68          78             0.1462              1.52739                     1.52739
6     12     0.68          78             0.153              1.52739                     1.52739
6     12     0.68          78             0.1598              13.7465                     4.58217
6     12     0.68          78             0.1666              44.2943                     8.22525
6     12     0.68          78             0.1734              50.4039                     8.77419
6     12     0.68          78             0.1802              96.2256                     12.1233
6     12     0.68          78             0.187              120.664                     13.5757
6     12     0.68          78             0.1938              145.102                     14.8872
6     12     0.68          78             0.2006              186.342                     16.8706
6     12     0.68          78             0.2074              261.184                     19.9732
6     12     0.68          78             0.2142              271.876                     20.3779
6     12     0.68          78             0.221              320.752                     22.134
6     12     0.68          78             0.2278              337.553                     22.7063
6     12     0.68          78             0.2346              461.272                     26.5432
6     12     0.68          78             0.2414              548.333                     28.9399
6     12     0.68          78             0.2482              545.278                     28.8592
6     12     0.68          78             0.255              569.717                     29.4988
6     12     0.68          78             0.2618              606.374                     30.433
6     12     0.68          78             0.2686              609.429                     30.5096
6     12     0.68          78             0.2754              557.498                     29.1808
6     12     0.68          78             0.2822              563.607                     29.3402
6     12     0.68          78             0.289              618.593                     30.7381
6     12     0.68          78             0.2958              562.08                     29.3004
6     12     0.68          78             0.3026              491.82                     27.408
6     12     0.68          78             0.3094              481.128                     27.1085
6     12     0.68          78             0.3162              456.69                     26.4111
6     12     0.68          78             0.323              459.745                     26.4992
6     12     0.68          78             0.3298              502.512                     27.7044
6     12     0.68          78             0.3366              445.998                     26.1001
6     12     0.68          78             0.3434              403.231                     24.8172
6     12     0.68          78             0.3502              447.525                     26.1447
6     12     0.68          78             0.357              351.3                     23.164
6     12     0.68          78             0.3638              455.162                     26.3669
6     12     0.68          78             0.3706              404.759                     24.8641
6     12     0.68          78             0.3774              429.197                     25.6037
6     12     0.68          78             0.3842              475.018                     26.9358
6     12     0.68          78             0.391              450.58                     26.2338
6     12     0.68          78             0.3978              496.402                     27.5354
6     12     0.68          78             0.4046              525.422                     28.3289
6     12     0.68          78             0.4114              536.114                     28.6157
6     12     0.68          78             0.4182              591.1                     30.0473
6     12     0.68          78             0.425              658.305                     31.7095
6     12     0.68          78             0.4318              676.634                     32.1479
6     12     0.68          78             0.4386              638.449                     31.2276
6     12     0.68          78             0.4454              694.963                     32.5804
6     12     0.68          78             0.4522              704.127                     32.7945
6     12     0.68          78             0.459              751.476                     33.8792
6     12     0.68          78             0.4658              803.407                     35.0302
6     12     0.68          78             0.4726              789.661                     34.7292
6     12     0.68          78             0.4794              807.99                     35.13
6     12     0.68          78             0.4862              841.592                     35.853
6     12     0.68          78             0.493              798.825                     34.9302
6     12     0.68          78             0.4998              811.044                     35.1963
6     12     0.68          78             0.5066              765.223                     34.1876
6     12     0.68          78             0.5134              777.442                     34.4595
6     12     0.68          78             0.5202              809.517                     35.1632
6     12     0.68          78             0.527              708.709                     32.901
6     12     0.68          78             0.5338              740.784                     33.6373
6     12     0.68          78             0.5406              691.908                     32.5087
6     12     0.68          78             0.5474              698.018                     32.6519
6     12     0.68          78             0.5542              710.237                     32.9364
6     12     0.68          78             0.561              675.107                     32.1115
6     12     0.68          78             0.5678              623.175                     30.8518
6     12     0.68          78             0.5746              548.333                     28.9399
6     12     0.68          78             0.5814              583.463                     29.8526
6     12     0.68          78             0.5882              627.758                     30.965
6     12     0.68          78             0.595              508.621                     27.8723
6     12     0.68          78             0.6018              504.039                     27.7464
6     12     0.68          78             0.6086              513.203                     27.9975
6     12     0.68          78             0.6154              504.039                     27.7464
6     12     0.68          78             0.6222              508.621                     27.8723
6     12     0.68          78             0.629              522.368                     28.2464
6     12     0.68          78             0.6358              533.059                     28.534
6     12     0.68          78             0.6426              511.676                     27.9558
6     12     0.68          78             0.6494              557.498                     29.1808
6     12     0.68          78             0.6562              494.875                     27.493
6     12     0.68          78             0.663              131.356                     14.1644
6     12     0.68          78             0.6698              0                     0
*******************************************************************************************************
 Average angle 77.9651 +- 0.487149 deg 
 Average E' 0.237989 +- 0.00148702 GeV 
