*******************************************************************************************************
Z     A     E(GeV)     Theta(deg)     Energy Loss(GeV)     Sigma(#mub/sr/GeV)     ERROR     Citation     
*******************************************************************************************************
6     12     0.48          84             0.0024              0                     0
6     12     0.48          84             0.0072              0                     0
6     12     0.48          84             0.012              0                     0
6     12     0.48          84             0.0168              0                     0
6     12     0.48          84             0.0216              0                     0
6     12     0.48          84             0.0264              0                     0
6     12     0.48          84             0.0312              0                     0
6     12     0.48          84             0.036              0                     0
6     12     0.48          84             0.0408              0                     0
6     12     0.48          84             0.0456              0                     0
6     12     0.48          84             0.0504              0                     0
6     12     0.48          84             0.0552              0                     0
6     12     0.48          84             0.06              0                     0
6     12     0.48          84             0.0648              0                     0
6     12     0.48          84             0.0696              0                     0
6     12     0.48          84             0.0744              1.9036                     1.9036
6     12     0.48          84             0.0792              5.71079                     3.29713
6     12     0.48          84             0.084              9.51799                     4.25658
6     12     0.48          84             0.0888              106.602                     14.2452
6     12     0.48          84             0.0936              177.035                     18.3576
6     12     0.48          84             0.0984              251.275                     21.8707
6     12     0.48          84             0.1032              306.479                     24.154
6     12     0.48          84             0.108              403.563                     27.7168
6     12     0.48          84             0.1128              510.164                     31.1632
6     12     0.48          84             0.1176              607.248                     33.9994
6     12     0.48          84             0.1224              742.403                     37.5931
6     12     0.48          84             0.1272              879.462                     40.9163
6     12     0.48          84             0.132              1037.46                     44.4399
6     12     0.48          84             0.1368              1128.83                     46.3556
6     12     0.48          84             0.1416              1187.85                     47.5519
6     12     0.48          84             0.1464              1323                     50.1843
6     12     0.48          84             0.1512              1530.49                     53.9763
6     12     0.48          84             0.156              1593.31                     55.0729
6     12     0.48          84             0.1608              1661.84                     56.2448
6     12     0.48          84             0.1656              1579.99                     54.8421
6     12     0.48          84             0.1704              1572.37                     54.7098
6     12     0.48          84             0.1752              1661.84                     56.2448
6     12     0.48          84             0.18              1619.96                     55.5316
6     12     0.48          84             0.1848              1701.82                     56.9173
6     12     0.48          84             0.1896              1467.67                     52.857
6     12     0.48          84             0.1944              1431.51                     52.2016
6     12     0.48          84             0.1992              1340.13                     50.5082
6     12     0.48          84             0.204              1235.44                     48.4951
6     12     0.48          84             0.2088              1229.72                     48.3829
6     12     0.48          84             0.2136              1256.37                     48.9043
6     12     0.48          84             0.2184              1102.18                     45.8052
6     12     0.48          84             0.2232              1071.73                     45.1679
6     12     0.48          84             0.228              1001.29                     43.6584
6     12     0.48          84             0.2328              959.414                     42.7357
6     12     0.48          84             0.2376              860.426                     40.4711
6     12     0.48          84             0.2424              911.824                     41.6623
6     12     0.48          84             0.2472              795.704                     38.9192
6     12     0.48          84             0.252              717.657                     36.9612
6     12     0.48          84             0.2568              668.163                     35.6639
6     12     0.48          84             0.2616              671.97                     35.7654
6     12     0.48          84             0.2664              586.308                     33.408
6     12     0.48          84             0.2712              510.164                     31.1632
6     12     0.48          84             0.276              491.128                     30.5763
6     12     0.48          84             0.2808              451.153                     29.3055
6     12     0.48          84             0.2856              416.888                     28.1707
6     12     0.48          84             0.2904              435.924                     28.8067
6     12     0.48          84             0.2952              473.996                     30.0383
6     12     0.48          84             0.3              483.514                     30.3384
6     12     0.48          84             0.3048              494.936                     30.6946
6     12     0.48          84             0.3096              479.707                     30.2187
6     12     0.48          84             0.3144              571.079                     32.9713
6     12     0.48          84             0.3192              544.429                     32.1928
6     12     0.48          84             0.324              628.187                     34.5806
6     12     0.48          84             0.3288              727.175                     37.2055
6     12     0.48          84             0.3336              742.403                     37.5931
6     12     0.48          84             0.3384              820.451                     39.5197
6     12     0.48          84             0.3432              818.547                     39.4739
6     12     0.48          84             0.348              807.126                     39.1975
6     12     0.48          84             0.3528              1022.23                     44.1126
6     12     0.48          84             0.3576              1045.08                     44.6027
6     12     0.48          84             0.3624              1206.88                     47.9314
6     12     0.48          84             0.3672              1224.01                     48.2704
6     12     0.48          84             0.372              1305.87                     49.8583
6     12     0.48          84             0.3768              1402.95                     51.6784
6     12     0.48          84             0.3816              1368.69                     51.0434
6     12     0.48          84             0.3864              1566.66                     54.6104
6     12     0.48          84             0.3912              1460.06                     52.7197
6     12     0.48          84             0.396              1532.4                     54.0099
6     12     0.48          84             0.4008              1692.3                     56.7579
6     12     0.48          84             0.4056              1699.91                     56.8854
6     12     0.48          84             0.4104              1701.82                     56.9173
6     12     0.48          84             0.4152              1686.59                     56.662
6     12     0.48          84             0.42              1690.4                     56.7259
6     12     0.48          84             0.4248              1642.81                     55.9217
6     12     0.48          84             0.4296              1762.73                     57.927
6     12     0.48          84             0.4344              1711.33                     57.0762
6     12     0.48          84             0.4392              1699.91                     56.8854
6     12     0.48          84             0.444              1741.79                     57.5819
6     12     0.48          84             0.4488              1823.65                     58.9194
6     12     0.48          84             0.4536              1659.94                     56.2126
6     12     0.48          84             0.4584              251.275                     21.8707
6     12     0.48          84             0.4632              0                     0
6     12     0.48          84             0.468              0                     0
6     12     0.48          84             0.4728              0                     0
*******************************************************************************************************
 Average angle 83.9804 +- 0.402905 deg 
 Average E' 0.189061 +- 0.000907042 GeV 
