*******************************************************************************************************
Z     A     E(GeV)     Theta(deg)     Energy Loss(GeV)     Sigma(#mub/sr/GeV)     ERROR     Citation     
*******************************************************************************************************
6     12     0.4          112.833             0.002              0                     0
6     12     0.4          112.833             0.006              0                     0
6     12     0.4          112.833             0.01              0                     0
6     12     0.4          112.833             0.014              0                     0
6     12     0.4          112.833             0.018              0                     0
6     12     0.4          112.833             0.022              0                     0
6     12     0.4          112.833             0.026              0                     0
6     12     0.4          112.833             0.03              0                     0
6     12     0.4          112.833             0.034              0                     0
6     12     0.4          112.833             0.038              0                     0
6     12     0.4          112.833             0.042              0                     0
6     12     0.4          112.833             0.046              0                     0
6     12     0.4          112.833             0.05              0                     0
6     12     0.4          112.833             0.054              0                     0
6     12     0.4          112.833             0.058              0                     0
6     12     0.4          112.833             0.062              0                     0
6     12     0.4          112.833             0.066              0                     0
6     12     0.4          112.833             0.07              0                     0
6     12     0.4          112.833             0.074              0                     0
6     12     0.4          112.833             0.078              0                     0
6     12     0.4          112.833             0.082              15.9492                     6.02822
6     12     0.4          112.833             0.086              18.2276                     6.44444
6     12     0.4          112.833             0.09              61.5182                     11.8392
6     12     0.4          112.833             0.094              100.252                     15.1135
6     12     0.4          112.833             0.098              129.872                     17.2019
6     12     0.4          112.833             0.102              173.162                     19.8631
6     12     0.4          112.833             0.106              221.01                     22.4402
6     12     0.4          112.833             0.11              291.642                     25.7777
6     12     0.4          112.833             0.114              339.489                     27.8121
6     12     0.4          112.833             0.118              375.945                     29.2673
6     12     0.4          112.833             0.122              473.918                     32.8603
6     12     0.4          112.833             0.126              596.955                     36.88
6     12     0.4          112.833             0.13              669.865                     39.0673
6     12     0.4          112.833             0.134              745.054                     41.2016
6     12     0.4          112.833             0.138              854.42                     44.122
6     12     0.4          112.833             0.142              991.127                     47.5209
6     12     0.4          112.833             0.146              1079.99                     49.6054
6     12     0.4          112.833             0.15              1180.24                     51.8567
6     12     0.4          112.833             0.154              1232.64                     52.9955
6     12     0.4          112.833             0.158              1405.81                     56.5956
6     12     0.4          112.833             0.162              1462.77                     57.7308
6     12     0.4          112.833             0.166              1501.5                     58.4901
6     12     0.4          112.833             0.17              1606.31                     60.4971
6     12     0.4          112.833             0.174              1458.21                     57.6408
6     12     0.4          112.833             0.178              1467.32                     57.8206
6     12     0.4          112.833             0.182              1563.02                     59.6763
6     12     0.4          112.833             0.186              1469.6                     57.8655
6     12     0.4          112.833             0.19              1446.82                     57.4152
6     12     0.4          112.833             0.194              1364.79                     55.7639
6     12     0.4          112.833             0.198              1262.26                     53.6284
6     12     0.4          112.833             0.202              1105.05                     50.1777
6     12     0.4          112.833             0.206              1187.07                     52.0066
6     12     0.4          112.833             0.21              1086.82                     49.7622
6     12     0.4          112.833             0.214              1029.86                     48.4406
6     12     0.4          112.833             0.218              945.558                     46.4156
6     12     0.4          112.833             0.222              820.243                     43.2306
6     12     0.4          112.833             0.226              824.8                     43.3505
6     12     0.4          112.833             0.23              719.991                     40.5027
6     12     0.4          112.833             0.234              683.536                     39.464
6     12     0.4          112.833             0.238              669.865                     39.0673
6     12     0.4          112.833             0.242              510.373                     34.1008
6     12     0.4          112.833             0.246              496.703                     33.6409
6     12     0.4          112.833             0.25              492.146                     33.4863
6     12     0.4          112.833             0.254              396.451                     30.0549
6     12     0.4          112.833             0.258              387.337                     29.7074
6     12     0.4          112.833             0.262              332.654                     27.5306
6     12     0.4          112.833             0.266              353.16                     28.3665
6     12     0.4          112.833             0.27              287.085                     25.5756
6     12     0.4          112.833             0.274              323.54                     27.1509
6     12     0.4          112.833             0.278              316.705                     26.8626
6     12     0.4          112.833             0.282              328.097                     27.3414
6     12     0.4          112.833             0.286              364.552                     28.8204
6     12     0.4          112.833             0.29              334.933                     27.6248
6     12     0.4          112.833             0.294              362.274                     28.7302
6     12     0.4          112.833             0.298              339.489                     27.8121
6     12     0.4          112.833             0.302              437.463                     31.5712
6     12     0.4          112.833             0.306              396.451                     30.0549
6     12     0.4          112.833             0.31              480.753                     33.0964
6     12     0.4          112.833             0.314              553.664                     35.5176
6     12     0.4          112.833             0.318              567.335                     35.9534
6     12     0.4          112.833             0.322              699.485                     39.9217
6     12     0.4          112.833             0.326              724.548                     40.6306
6     12     0.4          112.833             0.33              733.662                     40.8854
6     12     0.4          112.833             0.334              888.596                     44.9958
6     12     0.4          112.833             0.338              1038.97                     48.6544
6     12     0.4          112.833             0.342              1052.65                     48.9735
6     12     0.4          112.833             0.346              1132.39                     50.7947
6     12     0.4          112.833             0.35              1287.33                     54.1582
6     12     0.4          112.833             0.354              1467.32                     57.8206
6     12     0.4          112.833             0.358              1578.97                     59.98
6     12     0.4          112.833             0.362              1927.57                     66.2712
6     12     0.4          112.833             0.366              1877.44                     65.4039
6     12     0.4          112.833             0.37              2103.01                     69.2215
6     12     0.4          112.833             0.374              2314.91                     72.6251
6     12     0.4          112.833             0.378              2579.21                     76.659
6     12     0.4          112.833             0.382              1314.67                     54.7303
6     12     0.4          112.833             0.386              0                     0
6     12     0.4          112.833             0.39              0                     0
6     12     0.4          112.833             0.394              0                     0
*******************************************************************************************************
 Average angle 112.81 +- 0.66578 deg 
 Average E' 0.147523 +- 0.000870651 GeV 
