*******************************************************************************************************
Z     A     E(GeV)     Theta(deg)     Energy Loss(GeV)     Sigma(#mub/sr/GeV)     ERROR     Citation     
*******************************************************************************************************
6     12     0.62          64.5             0.0031              0                     0
6     12     0.62          64.5             0.0093              0                     0
6     12     0.62          64.5             0.0155              0                     0
6     12     0.62          64.5             0.0217              0                     0
6     12     0.62          64.5             0.0279              0                     0
6     12     0.62          64.5             0.0341              0                     0
6     12     0.62          64.5             0.0403              0                     0
6     12     0.62          64.5             0.0465              0                     0
6     12     0.62          64.5             0.0527              0                     0
6     12     0.62          64.5             0.0589              0                     0
6     12     0.62          64.5             0.0651              0                     0
6     12     0.62          64.5             0.0713              0                     0
6     12     0.62          64.5             0.0775              0                     0
6     12     0.62          64.5             0.0837              1.76944                     1.76944
6     12     0.62          64.5             0.0899              26.5417                     6.85303
6     12     0.62          64.5             0.0961              113.244                     14.1555
6     12     0.62          64.5             0.1023              166.328                     17.1554
6     12     0.62          64.5             0.1085              288.419                     22.5907
6     12     0.62          64.5             0.1147              398.125                     26.5417
6     12     0.62          64.5             0.1209              544.989                     31.0536
6     12     0.62          64.5             0.1271              684.775                     34.8091
6     12     0.62          64.5             0.1333              799.788                     37.6189
6     12     0.62          64.5             0.1395              1051.05                     43.1251
6     12     0.62          64.5             0.1457              1220.92                     46.4795
6     12     0.62          64.5             0.1519              1408.48                     49.9221
6     12     0.62          64.5             0.1581              1555.34                     52.4603
6     12     0.62          64.5             0.1643              1610.19                     53.3774
6     12     0.62          64.5             0.1705              2008.32                     59.6121
6     12     0.62          64.5             0.1767              2100.33                     60.9624
6     12     0.62          64.5             0.1829              2110.95                     61.1163
6     12     0.62          64.5             0.1891              2139.26                     61.5248
6     12     0.62          64.5             0.1953              2050.79                     60.2391
6     12     0.62          64.5             0.2015              1941.08                     58.6057
6     12     0.62          64.5             0.2077              1995.93                     59.428
6     12     0.62          64.5             0.2139              1834.91                     56.9805
6     12     0.62          64.5             0.2201              1622.58                     53.5823
6     12     0.62          64.5             0.2263              1624.35                     53.6115
6     12     0.62          64.5             0.2325              1516.41                     51.7997
6     12     0.62          64.5             0.2387              1433.25                     50.3592
6     12     0.62          64.5             0.2449              1369.55                     49.2274
6     12     0.62          64.5             0.2511              1272.23                     47.4462
6     12     0.62          64.5             0.2573              1109.44                     44.3068
6     12     0.62          64.5             0.2635              1109.44                     44.3068
6     12     0.62          64.5             0.2697              1054.59                     43.1976
6     12     0.62          64.5             0.2759              944.883                     40.8891
6     12     0.62          64.5             0.2821              966.116                     41.346
6     12     0.62          64.5             0.2883              879.413                     39.4471
6     12     0.62          64.5             0.2945              750.244                     36.4351
6     12     0.62          64.5             0.3007              759.091                     36.6493
6     12     0.62          64.5             0.3069              792.711                     37.4521
6     12     0.62          64.5             0.3131              730.78                     35.9593
6     12     0.62          64.5             0.3193              737.858                     36.1331
6     12     0.62          64.5             0.3255              752.014                     36.478
6     12     0.62          64.5             0.3317              778.555                     37.1162
6     12     0.62          64.5             0.3379              801.558                     37.6605
6     12     0.62          64.5             0.3441              835.177                     38.4422
6     12     0.62          64.5             0.3503              856.411                     38.9278
6     12     0.62          64.5             0.3565              950.191                     41.0038
6     12     0.62          64.5             0.3627              1072.28                     43.5585
6     12     0.62          64.5             0.3689              1109.44                     44.3068
6     12     0.62          64.5             0.3751              1169.6                     45.4923
6     12     0.62          64.5             0.3813              1251                     47.0486
6     12     0.62          64.5             0.3875              1249.23                     47.0153
6     12     0.62          64.5             0.3937              1431.48                     50.3282
6     12     0.62          64.5             0.3999              1482.79                     51.2223
6     12     0.62          64.5             0.4061              1507.57                     51.6484
6     12     0.62          64.5             0.4123              1562.42                     52.5796
6     12     0.62          64.5             0.4185              1489.87                     51.3444
6     12     0.62          64.5             0.4247              1656.2                     54.1346
6     12     0.62          64.5             0.4309              1721.67                     55.1942
6     12     0.62          64.5             0.4371              1714.59                     55.0806
6     12     0.62          64.5             0.4433              1665.05                     54.279
6     12     0.62          64.5             0.4495              1688.05                     54.6526
6     12     0.62          64.5             0.4557              1652.66                     54.0767
6     12     0.62          64.5             0.4619              1574.8                     52.7876
6     12     0.62          64.5             0.4681              1530.57                     52.0409
6     12     0.62          64.5             0.4743              1558.88                     52.52
6     12     0.62          64.5             0.4805              1440.33                     50.4834
6     12     0.62          64.5             0.4867              1429.71                     50.297
6     12     0.62          64.5             0.4929              1431.48                     50.3282
6     12     0.62          64.5             0.4991              1380.17                     49.4179
6     12     0.62          64.5             0.5053              1321.77                     48.3612
6     12     0.62          64.5             0.5115              1210.3                     46.277
6     12     0.62          64.5             0.5177              1125.37                     44.6237
6     12     0.62          64.5             0.5239              1187.3                     45.8351
6     12     0.62          64.5             0.5301              1088.21                     43.8808
6     12     0.62          64.5             0.5363              1003.27                     42.1336
6     12     0.62          64.5             0.5425              1015.66                     42.3929
6     12     0.62          64.5             0.5487              976.733                     41.5725
6     12     0.62          64.5             0.5549              925.419                     40.4657
6     12     0.62          64.5             0.5611              913.033                     40.194
6     12     0.62          64.5             0.5673              914.802                     40.233
6     12     0.62          64.5             0.5735              849.333                     38.7666
6     12     0.62          64.5             0.5797              783.863                     37.2425
6     12     0.62          64.5             0.5859              766.169                     36.8197
6     12     0.62          64.5             0.5921              345.041                     24.7089
6     12     0.62          64.5             0.5983              0                     0
6     12     0.62          64.5             0.6045              0                     0
6     12     0.62          64.5             0.6107              0                     0
*******************************************************************************************************
 Average angle 64.4669 +- 0.274079 deg 
 Average E' 0.277015 +- 0.00117772 GeV 
