*******************************************************************************************************
Z     A     E(GeV)     Theta(deg)     Energy Loss(GeV)     Sigma(#mub/sr/GeV)     ERROR     Citation     
*******************************************************************************************************
6     12     0.68          44             0.0034              0                     0
6     12     0.68          44             0.0102              0                     0
6     12     0.68          44             0.017              0                     0
6     12     0.68          44             0.0238              0                     0
6     12     0.68          44             0.0306              0                     0
6     12     0.68          44             0.0374              0                     0
6     12     0.68          44             0.0442              0                     0
6     12     0.68          44             0.051              51.6172                     10.5363
6     12     0.68          44             0.0578              658.119                     37.6222
6     12     0.68          44             0.0646              1499.05                     56.7806
6     12     0.68          44             0.0714              2402.35                     71.8803
6     12     0.68          44             0.0782              3630.41                     88.3628
6     12     0.68          44             0.085              4383.16                     97.0924
6     12     0.68          44             0.0918              5596.17                     109.708
6     12     0.68          44             0.0986              6938.21                     122.156
6     12     0.68          44             0.1054              7768.39                     129.258
6     12     0.68          44             0.1122              9200.77                     140.671
6     12     0.68          44             0.119              9820.17                     145.329
6     12     0.68          44             0.1258              10499.8                     150.273
6     12     0.68          44             0.1326              10418.1                     149.687
6     12     0.68          44             0.1394              10241.7                     148.415
6     12     0.68          44             0.1462              9736.3                     144.707
6     12     0.68          44             0.153              9147                     140.259
6     12     0.68          44             0.1598              8762.02                     137.276
6     12     0.68          44             0.1666              7779.14                     129.347
6     12     0.68          44             0.1734              7041.45                     123.062
6     12     0.68          44             0.1802              6430.64                     117.603
6     12     0.68          44             0.187              5723.06                     110.944
6     12     0.68          44             0.1938              5150.97                     105.253
6     12     0.68          44             0.2006              4589.63                     99.3529
6     12     0.68          44             0.2074              3929.36                     91.929
6     12     0.68          44             0.2142              3357.27                     84.9737
6     12     0.68          44             0.221              2931.43                     79.4019
6     12     0.68          44             0.2278              2606.67                     74.8746
6     12     0.68          44             0.2346              2258.25                     69.6912
6     12     0.68          44             0.2414              1916.29                     64.1981
6     12     0.68          44             0.2482              1673.26                     59.9892
6     12     0.68          44             0.255              1479.69                     56.4128
6     12     0.68          44             0.2618              1378.61                     54.4518
6     12     0.68          44             0.2686              1331.29                     53.5092
6     12     0.68          44             0.2754              1169.99                     50.1629
6     12     0.68          44             0.2822              1273.22                     52.3292
6     12     0.68          44             0.289              1210.85                     51.0314
6     12     0.68          44             0.2958              1393.66                     54.7483
6     12     0.68          44             0.3026              1490.45                     56.6174
6     12     0.68          44             0.3094              1516.26                     57.1055
6     12     0.68          44             0.3162              1750.68                     61.3614
6     12     0.68          44             0.323              1858.22                     63.2179
6     12     0.68          44             0.3298              2056.09                     66.4986
6     12     0.68          44             0.3366              2178.68                     68.4523
6     12     0.68          44             0.3434              2546.45                     74.0047
6     12     0.68          44             0.3502              2621.72                     75.0905
6     12     0.68          44             0.357              2813.14                     77.7834
6     12     0.68          44             0.3638              3129.29                     82.0379
6     12     0.68          44             0.3706              3337.91                     84.7284
6     12     0.68          44             0.3774              3531.48                     87.1505
6     12     0.68          44             0.3842              3658.37                     88.7024
6     12     0.68          44             0.391              3716.44                     89.4036
6     12     0.68          44             0.3978              3877.74                     91.3232
6     12     0.68          44             0.4046              3776.66                     90.125
6     12     0.68          44             0.4114              4056.25                     93.4015
6     12     0.68          44             0.4182              4036.9                     93.1784
6     12     0.68          44             0.425              4019.69                     92.9796
6     12     0.68          44             0.4318              3841.18                     90.8916
6     12     0.68          44             0.4386              3841.18                     90.8916
6     12     0.68          44             0.4454              3703.53                     89.2483
6     12     0.68          44             0.4522              3602.45                     88.0219
6     12     0.68          44             0.459              3658.37                     88.7024
6     12     0.68          44             0.4658              3286.3                     84.0707
6     12     0.68          44             0.4726              3316.41                     84.455
6     12     0.68          44             0.4794              3241.13                     83.491
6     12     0.68          44             0.4862              2920.67                     79.2562
6     12     0.68          44             0.493              2823.89                     77.932
6     12     0.68          44             0.4998              2821.74                     77.9023
6     12     0.68          44             0.5066              2619.57                     75.0597
6     12     0.68          44             0.5134              2615.27                     74.9981
6     12     0.68          44             0.5202              2443.21                     72.489
6     12     0.68          44             0.527              2312.02                     70.516
6     12     0.68          44             0.5338              2157.17                     68.1136
6     12     0.68          44             0.5406              2150.72                     68.0116
6     12     0.68          44             0.5474              1935.65                     64.5215
6     12     0.68          44             0.5542              1939.95                     64.5932
6     12     0.68          44             0.561              1858.22                     63.2179
6     12     0.68          44             0.5678              1886.18                     63.6917
6     12     0.68          44             0.5746              1692.61                     60.3352
6     12     0.68          44             0.5814              1649.6                     59.5636
6     12     0.68          44             0.5882              1634.54                     59.2912
6     12     0.68          44             0.595              1615.19                     58.9391
6     12     0.68          44             0.6018              1542.06                     57.5894
6     12     0.68          44             0.6086              1595.83                     58.5848
6     12     0.68          44             0.6154              1462.49                     56.0838
6     12     0.68          44             0.6222              1600.13                     58.6637
6     12     0.68          44             0.629              449.5                     31.0926
6     12     0.68          44             0.6358              0                     0
6     12     0.68          44             0.6426              0                     0
6     12     0.68          44             0.6494              0                     0
6     12     0.68          44             0.6562              0                     0
6     12     0.68          44             0.663              0                     0
6     12     0.68          44             0.6698              0                     0
*******************************************************************************************************
 Average angle 43.9499 +- 0.116983 deg 
 Average E' 0.400847 +- 0.00106695 GeV 
